File: data-release/xrd_measurements/NaiLiI/T_of_r.csv
,r,T
0,0.1109,-0.0385118
2,0.4711,-0.203052
4,1.0,-0.482706
6,1.547,-0.830562
8,2.101,-1.25221
10,2.608,-1.5319
12,2.794,-0.402629
14,2.998,1.17009
16,3.142,0.340008
18,3.179,0.0114671
20,3.241,-0.626622
22,3.296,-1.18112
24,3.522,-2.28995
26,3.835,-2.39898
28,3.925,-1.72543
30,4.037,-0.482293
32,4.136,1.13534
34,4.161,1.60299
36,4.372,1.79309
38,4.409,1.23732
40,4.608,-2.22431
42,4.824,-3.42761
44,5.197,-2.09265
46,5.44,-3.19538
48,5.701,-4.52825
50,6.049,-3.25504
52,6.268,-4.36861
54,6.496,-2.5358
56,6.521,-1.90317
58,6.596,-0.70688
60,6.752,1.16419
62,6.906,0.704977
64,7.085,-0.235631
66,7.378,2.66134
68,7.515,0.954188
70,7.59,-1.37411
72,7.689,-4.09039
74,7.848,-7.8755
76,8.223,-8.45351
78,8.439,-5.93378
80,8.72,-3.47915
82,8.931,-1.01188
84,9.354,-0.0924507
86,9.59,-0.248373
88,9.923,-2.76183
90,10.18,-5.60357
92,10.41,-8.58774
94,10.74,-6.37477
96,10.87,-3.50729
98,10.91,-2.63316
100,10.97,-1.0403
102,11.04,1.12698
104,11.12,3.48968
106,11.25,5.01572
108,11.38,2.91449
110,11.65,-11.7202
112,11.84,-16.2121
114,12.0,-14.7301
116,12.0,-15.9161
118,12.06,-13.0985
120,12.14,-10.8688
122,12.16,-9.68928
124,12.24,-6.81255
126,12.27,-6.30079
128,12.37,-0.792455
130,12.54,2.45618
132,12.84,1.06063
134,12.99,-2.65537
136,13.22,-6.07237
138,13.6,-2.71334
140,13.98,-2.89253
142,14.07,-5.75227
144,14.15,-8.74688
146,14.22,-11.7667
148,14.28,-13.7686
150,14.32,-15.4652
152,14.53,-18.0348
154,14.73,-14.6382
156,14.82,-11.7874
158,14.94,-8.31531
160,15.04,-3.18563
162,15.07,-1.24375
164,15.14,2.01518
166,15.22,5.77005
168,15.24,6.99803
170,15.38,9.54216
172,15.55,4.17316
174,15.69,-4.2894
176,15.79,-10.1497
178,16.05,-8.34028
180,16.14,-4.2139
182,16.24,1.45864
184,16.47,1.3783
186,16.51,0.160795
188,16.68,-11.7488
190,16.75,-17.0564
192,16.95,-21.705
194,17.13,-16.8131
196,17.19,-14.0135
198,17.23,-12.0299
200,17.25,-10.7696
202,17.29,-9.30396
204,17.37,-5.28315
206,17.6,0.647552
208,17.84,-2.37263
210,18.08,-7.54756
212,18.44,-6.01759
214,18.62,-6.42028
216,18.75,-10.8518
218,18.91,-15.5998
220,19.04,-10.7147
222,19.11,-5.45944
224,19.18,-0.874496
226,19.24,2.44292
228,19.4,5.89918
230,19.55,1.75593
232,19.62,-2.46499
234,19.69,-6.11023
236,19.84,-11.1649
238,20.08,-8.43172
240,20.42,-9.22857
242,20.47,-13.7878
244,20.51,-16.2169
246,20.58,-21.3351
248,20.65,-25.7354
250,20.78,-30.3723
252,20.96,-23.0219
254,21.06,-12.6294
256,21.16,-4.22164
258,21.35,5.52178
260,21.51,3.01823
262,21.73,-1.47203
264,22.04,6.6463
266,22.19,7.73208
268,22.22,3.09381
270,22.25,0.216698
272,22.32,-3.62864
274,22.37,-6.91446
276,22.47,-11.926
278,22.81,-17.3032
280,23.25,-18.4673
282,23.44,-12.1804
284,23.64,-5.64761
286,23.78,-8.25798
288,23.83,-10.7697
290,23.91,-16.4291
292,24.04,-21.2279
294,24.16,-13.596
296,24.24,-9.46242
298,24.31,-3.05422
300,24.51,5.06594
302,24.66,4.03842
304,24.95,-2.12035
306,25.1,-7.38708
308,25.18,-12.6823
310,25.28,-18.5842
312,25.45,-27.2375
314,25.6,-21.3404
316,25.64,-19.3575
318,25.74,-8.93862
320,25.8,-2.1293
322,25.88,1.68968
324,26.01,6.52998
326,26.21,0.0661801
328,26.3,-5.14941
330,26.46,-12.4469
332,26.54,-17.681
334,26.62,-23.3429
336,26.85,-29.9174
338,27.05,-22.3832
340,27.12,-17.1987
342,27.18,-14.6259
344,27.47,-6.32577
346,27.97,-6.2694
348,28.25,-2.12261
350,28.27,-0.244737
352,28.31,1.50113
354,28.37,9.01566
356,28.51,13.5542
358,28.65,10.5101
360,28.71,3.45893
362,28.82,-6.99219
364,28.92,-20.5486
366,29.06,-29.057
368,29.37,-36.4545
370,29.57,-33.5668
372,29.6,-29.96
374,29.68,-24.5595
376,29.74,-17.7252
378,29.8,-10.3485
380,29.88,-6.14568
382,29.94,-1.03354