File: data/xrd_measurements/GeO2/F_of_Q copy.csv
,Q,F,dF
0,0.04,-0.404879,1e-07
2,0.12,-0.404517,1e-07
4,0.2,-0.40523,1e-07
6,0.28,-0.405327,0.000757398
8,0.36,-0.40254,0.00102957
10,0.44,-0.395851,0.001358
12,0.52,-0.387066,0.00067699
14,0.6,-0.378699,0.000755646
16,0.68,-0.368932,0.000869164
18,0.76,-0.355431,0.00098054
20,0.84,-0.340118,0.00111679
22,0.92,-0.323551,0.0012069
24,1.0,-0.299441,0.00133342
26,1.08,-0.261662,0.000552841
28,1.16,-0.206792,0.000603791
30,1.24,-0.130975,0.000686019
32,1.32,-0.0302646,0.000788286
34,1.4,0.0735787,0.000941473
36,1.48,0.133459,0.00105916
38,1.56,0.134284,0.00113822
40,1.64,0.0885173,0.00117985
42,1.72,0.0220808,0.000609623
44,1.8,-0.0350833,0.000580655
46,1.88,-0.0774116,0.000561306
48,1.96,-0.109213,0.000550168
50,2.04,-0.131081,0.00054448
52,2.12,-0.143084,0.000545248
54,2.2,-0.147818,0.000549922
56,2.28,-0.147765,0.000565767
58,2.36,-0.143431,0.000575442
60,2.44,-0.135613,0.000593885
62,2.52,-0.126479,0.000610602
64,2.6,-0.119715,0.000622226
66,2.68,-0.121105,0.000631158
68,2.76,-0.130935,0.000637331
70,2.84,-0.142049,0.000639606
72,2.92,-0.15046,0.000645244
74,3.0,-0.156126,0.000552185
76,3.08,-0.158926,0.000559532
78,3.16,-0.158539,0.00056365
80,3.24,-0.155154,0.00057
82,3.32,-0.149299,0.000578868
84,3.4,-0.141025,0.000592995
86,3.48,-0.130093,0.000604336
88,3.56,-0.116328,0.000624453
90,3.64,-0.0996037,0.000641793
92,3.72,-0.0798793,0.000662923
94,3.8,-0.0570635,0.00069155
96,3.88,-0.030468,0.000716814
98,3.96,0.000657464,0.00074846
100,4.04,0.0360369,0.000779283
102,4.12,0.0744939,0.000818311
104,4.2,0.112047,0.000851795
106,4.28,0.144351,0.000888882
108,4.36,0.169821,0.000917328
110,4.44,0.187897,0.000943766
112,4.52,0.198839,0.000964823
114,4.6,0.203455,0.000983219
116,4.68,0.203961,0.000993893
118,4.76,0.202157,0.0010046
120,4.84,0.195968,0.0010169
122,4.92,0.182067,0.00102038
124,5.0,0.156542,0.00101663
126,5.08,0.116729,0.000996989
128,5.16,0.0673492,0.000967172
130,5.24,0.0155205,0.000935435
132,5.32,-0.0316073,0.000908575
134,5.4,-0.0677649,0.000889975
136,5.48,-0.0924897,0.000886989
138,5.56,-0.107705,0.000881935
140,5.64,-0.115805,0.000887731
142,5.72,-0.119265,0.00090141
144,5.8,-0.119285,0.000913482
146,5.88,-0.116438,0.000929497
148,5.96,-0.112354,0.000939244
150,6.04,-0.109274,0.000960372
152,6.12,-0.107498,0.000971118
154,6.2,-0.105696,0.000990979
156,6.28,-0.103356,0.000995502
158,6.36,-0.100928,0.0010208
160,6.44,-0.0982584,0.00101972
162,6.52,-0.0942339,0.00104669
164,6.6,-0.0879815,0.00106186
166,6.68,-0.0793008,0.00107784
168,6.75999,-0.0680575,0.0011003
170,6.83999,-0.0540601,0.00113179
172,6.91999,-0.0372801,0.00116351
174,6.99999,-0.0185475,0.00118414
176,7.07999,0.00100991,0.00121443
178,7.15999,0.019988,0.00125359
180,7.23999,0.0368731,0.00128458
182,7.31999,0.0506132,0.00130716
184,7.39999,0.0605345,0.00133744
186,7.47999,0.0660879,0.00134627
188,7.55999,0.0668815,0.00135843
190,7.63999,0.0631928,0.00136758
192,7.71999,0.0569126,0.00135988
194,7.79999,0.0500402,0.00137557
196,7.87999,0.0439249,0.00137485
198,7.95999,0.0396249,0.00137515
200,8.03999,0.037182,0.00138554
202,8.11999,0.03603,0.00138224
204,8.19999,0.035973,0.00139496
206,8.27999,0.0372795,0.00141129
208,8.35999,0.0397568,0.00142254
210,8.43999,0.0419106,0.00142643
212,8.51999,0.0422833,0.00144271
214,8.59999,0.0410648,0.00144338
216,8.67999,0.039062,0.0014497
218,8.75999,0.0360182,0.00145532
220,8.83999,0.0306528,0.0014606
222,8.91999,0.0224107,0.00145986
224,8.99999,0.0125816,0.00145146
226,9.07999,0.00256034,0.00144947
228,9.15999,-0.00744822,0.00144785
230,9.23999,-0.0177435,0.0014395
232,9.31999,-0.0282096,0.00143947
234,9.39999,-0.0382274,0.00142528
236,9.47999,-0.0471371,0.00142532
238,9.55999,-0.0542405,0.00143544
240,9.63999,-0.0588873,0.00142425
242,9.71999,-0.0612958,0.00143337
244,9.79999,-0.0623577,0.00144267
246,9.87999,-0.0625642,0.00144192
248,9.95999,-0.0613194,0.00146185
250,10.04,-0.0579823,0.0014639
252,10.12,-0.0533717,0.00147933
254,10.2,-0.0492311,0.00149992
256,10.28,-0.0464896,0.00150036
258,10.36,-0.0440886,0.00150867
260,10.44,-0.0407705,0.001533
262,10.52,-0.0364223,0.0015397
264,10.6,-0.0317008,0.00155117
266,10.68,-0.0270324,0.00158203
268,10.76,-0.02212,0.0015794
270,10.84,-0.0165404,0.00160493
272,10.92,-0.0100113,0.00161512
274,11.0,-0.00238219,0.00163591
276,11.08,0.006421,0.00165161
278,11.16,0.0161109,0.00168855
280,11.24,0.0262856,0.00170569
282,11.32,0.0365061,0.00171095
284,11.4,0.0462685,0.00175199
286,11.48,0.0550335,0.00176747
288,11.56,0.06187,0.00177986
290,11.64,0.0655673,0.00180256
292,11.72,0.0653066,0.00180165
294,11.8,0.0621936,0.00181686
296,11.88,0.0579113,0.00181273
298,11.96,0.0533556,0.00181835
300,12.04,0.0477344,0.00180292
302,12.12,0.0400771,0.00180657
304,12.2,0.0305297,0.00179693
306,12.28,0.0204792,0.00180763
308,12.36,0.011289,0.00178716
310,12.44,0.00331468,0.0017923
312,12.52,-0.00372933,0.00177251
314,12.6,-0.0101361,0.0017767
316,12.68,-0.0161828,0.00177864
318,12.76,-0.0221402,0.00177747
320,12.84,-0.0281276,0.00178013
322,12.92,-0.0336472,0.00175511
324,13.0,-0.0380442,0.00176796
326,13.08,-0.0409191,0.00175528
328,13.16,-0.0426277,0.00177635
330,13.24,-0.0436642,0.00179281
332,13.32,-0.044315,0.00178601
334,13.4,-0.0443629,0.00179966
336,13.48,-0.0435167,0.00182127
338,13.56,-0.0416098,0.00181104
340,13.64,-0.0387513,0.00184584
342,13.72,-0.0350867,0.00184799
344,13.8,-0.0307588,0.00188298
346,13.88,-0.0259025,0.00188077
348,13.96,-0.0206521,0.00189535
350,14.04,-0.0152211,0.00192581
352,14.12,-0.0100295,0.0019298
354,14.2,-0.00553,0.00192213
356,14.28,-0.00199858,0.00196763
358,14.36,0.00088899,0.00198814
360,14.44,0.00358399,0.00200021
362,14.52,0.00641899,0.00202664
364,14.6,0.00912382,0.00203146
366,14.68,0.0112375,0.00203681
368,14.76,0.0123802,0.00203694
370,14.84,0.0129012,0.00205508
372,14.92,0.0135338,0.00205966
374,15.0,0.0149836,0.00207704
376,15.08,0.0172929,0.00211256
378,15.16,0.0198666,0.00209654
380,15.24,0.0220864,0.00212066
382,15.32,0.0236275,0.0021208
384,15.4,0.0247476,0.00215878
386,15.48,0.025773,0.00217752
388,15.56,0.0269108,0.0021718
390,15.64,0.0277586,0.00219133
392,15.72,0.0277204,0.00218236
394,15.8,0.026233,0.0022135
396,15.88,0.0233555,0.00220955
398,15.96,0.019699,0.00220128
400,16.04,0.0158938,0.00220971
402,16.12,0.01233,0.00221302
404,16.2,0.00872279,0.0022134
406,16.28,0.00466935,0.00114026
408,16.36,-0.000190151,0.00113482
410,16.44,-0.00565937,0.00113773
412,16.52,-0.0111544,0.00112964
414,16.6,-0.0160834,0.00112592
416,16.68,-0.0200352,0.00112355
418,16.76,-0.0231334,0.0011252
420,16.84,-0.0256009,0.00112377
422,16.92,-0.0276507,0.00112588
424,17.0,-0.0292833,0.00112969
426,17.08,-0.0302891,0.00113151
428,17.16,-0.0304495,0.00113145
430,17.24,-0.0295932,0.0011357
432,17.32,-0.0278463,0.00114061
434,17.4,-0.0254513,0.00114149
436,17.48,-0.0226507,0.00114698
438,17.56,-0.0195951,0.00115874
440,17.64,-0.0161852,0.00116589
442,17.72,-0.0122801,0.00117341
444,17.8,-0.00774246,0.00118081
446,17.88,-0.00264011,0.0011892
448,17.96,0.00265431,0.00120175
450,18.04,0.00774339,0.00121211
452,18.12,0.0122404,0.00121962
454,18.2,0.016005,0.00122603
456,18.28,0.0191431,0.00123613
458,18.36,0.0217712,0.00124495
460,18.44,0.0239986,0.00125109
462,18.52,0.0258146,0.00125774
464,18.6,0.0271119,0.00126029
466,18.68,0.0277805,0.00127081
468,18.76,0.0277194,0.00127065
470,18.8401,0.0269682,0.00127442
472,18.9201,0.0256765,0.00127107
474,19.0001,0.0239968,0.0012763
476,19.0801,0.0220791,0.00127313
478,19.1601,0.0200219,0.00127611
480,19.2401,0.0178754,0.0012795
482,19.3201,0.0156882,0.0012812
484,19.4001,0.0135086,0.0012836
486,19.4801,0.0113747,0.00127977
488,19.5601,0.00931052,0.0012791
490,19.6401,0.00733932,0.00128099
492,19.7201,0.00548417,0.00128176
494,19.8001,0.00372931,0.00128825
496,19.8801,0.00196453,0.00129294
498,19.9601,6.55343e-05,0.0012884