File: data/xrd_measurements/GeO2/F_of_Q.csv
,Q,F,dF
0,0.24,-0.405549,1.00E-07
2,0.32,-0.404379,0.000921227
4,0.4,-0.399657,0.00120653
6,0.48,-0.391518,0.00141865
8,0.56,-0.382846,0.000701654
10,0.64,-0.374202,0.000792214
12,0.72,-0.362595,0.000930153
14,0.8,-0.347815,0.00106529
16,0.88,-0.33231,0.00116949
18,0.96,-0.312904,0.00130178
20,1.04,-0.282494,0.000536866
22,1.12,-0.236562,0.000571229
24,1.2,-0.171805,0.000640184
26,1.28,-0.0836719,0.000731497
28,1.36,0.0242595,0.000878964
30,1.44,0.111379,0.00100823
32,1.52,0.140597,0.00110881
34,1.6,0.116041,0.00116158
36,1.68,0.0558023,0.00118969
38,1.76,-0.00865757,0.000596685
40,1.84,-0.0577895,0.00057385
42,1.92,-0.0945162,0.000555792
44,2,-0.121426,0.000546443
46,2.08,-0.138191,0.000544288
48,2.16,-0.146161,0.000549414
50,2.24,-0.148337,0.000563504
52,2.32,-0.146121,0.000572749
54,2.4,-0.139834,0.000584035
56,2.48,-0.131058,0.00060187
58,2.56,-0.122444,0.00061778
60,2.64,-0.11906,0.000628978
62,2.72,-0.125389,0.000637572
64,2.8,-0.136768,0.000639181
66,2.88,-0.146607,0.000643315
68,2.96,-0.153631,0.000647315
70,3.04,-0.157906,0.000552687
72,3.12,-0.15914,0.000558711
74,3.2,-0.157186,0.000566469
76,3.28,-0.152515,0.000575058
78,3.36,-0.14548,0.000586442
80,3.44,-0.135905,0.000598164
82,3.52,-0.123574,0.000615166
84,3.6,-0.108341,0.000632726
86,3.68,-0.0901165,0.000653887
88,3.76,-0.0688861,0.0006743
90,3.84,-0.0442961,0.000705113
92,3.92,-0.0154772,0.000731643
94,4,0.0178558,0.000766915
96,4.08,0.055072,0.000798727
98,4.16,0.0936901,0.000835552
100,4.24,0.129008,0.000870049
102,4.32,0.157987,0.000901017
104,4.4,0.179782,0.000932661
106,4.48,0.194228,0.0009549
108,4.56,0.201824,0.000976163
110,4.64,0.204058,0.000989556
112,4.72,0.203407,0.00100057
114,4.8,0.199811,0.00101393
116,4.88,0.190215,0.00102027
118,4.96,0.171013,0.00102023
120,5.04,0.138276,0.00100689
122,5.12,0.0927905,0.000984173
124,5.2,0.0412948,0.00095397
126,5.28,-0.00907855,0.000924179
128,5.36,-0.0512297,0.000903703
130,5.44,-0.0814404,0.000890482
132,5.52,-0.101149,0.000887485
134,5.6,-0.112481,0.00088511
136,5.68,-0.117998,0.000895162
138,5.76,-0.119674,0.000904741
140,5.84,-0.118159,0.000924086
142,5.92,-0.114404,0.000934298
144,6,-0.110582,0.000950405
146,6.08,-0.108305,0.000964352
148,6.16,-0.106677,0.000983462
150,6.24,-0.104568,0.000999165
152,6.32,-0.102126,0.00100448
154,6.4,-0.0996879,0.00102214
156,6.48,-0.0964896,0.00103831
158,6.56,-0.091404,0.00105086
160,6.64,-0.083952,0.00107495
162,6.72,-0.0740108,0.00109751
164,6.79999,-0.0614157,0.00111493
166,6.87999,-0.0459825,0.00113859
168,6.95999,-0.0280895,0.00117512
170,7.03999,-0.00879245,0.00120917
172,7.11999,0.0106677,0.00123423
174,7.19999,0.028778,0.00127092
176,7.27999,0.0441792,0.00129106
178,7.35999,0.0560919,0.00131507
180,7.43999,0.0638825,0.00133718
182,7.51999,0.0671028,0.00135116
184,7.59999,0.0654944,0.00136
186,7.67999,0.0602433,0.00136122
188,7.75999,0.0534538,0.00137112
190,7.83999,0.0468159,0.00136385
192,7.91999,0.0415094,0.00136915
194,7.99999,0.0382068,0.00138232
196,8.07999,0.0364771,0.0013791
198,8.15999,0.0358495,0.00139718
200,8.23999,0.0364375,0.00140022
202,8.31999,0.0384518,0.00140876
204,8.39999,0.0409809,0.0014224
206,8.47999,0.0423488,0.00144036
208,8.55999,0.0418195,0.00144485
210,8.63999,0.0401264,0.00146012
212,8.71999,0.0377478,0.00145042
214,8.79999,0.0337075,0.00146667
216,8.87999,0.0268277,0.00146724
218,8.95999,0.0175969,0.00145331
220,9.03999,0.00755053,0.0014517
222,9.11999,-0.00242615,0.00145351
224,9.19999,-0.0125451,0.00143343
226,9.27999,-0.022992,0.00144281
228,9.35999,-0.0333151,0.00143144
230,9.43999,-0.0428639,0.00142578
232,9.51999,-0.0509588,0.0014239
234,9.59999,-0.056894,0.00142521
236,9.67999,-0.0603167,0.00143204
238,9.75999,-0.0619385,0.00142929
240,9.83999,-0.0625943,0.00144972
242,9.91999,-0.0621713,0.00145317
244,9.99999,-0.0599145,0.00146122
246,10.08,-0.0557279,0.00146622
248,10.16,-0.0511336,0.00149158
250,10.24,-0.0477334,0.00149682
252,10.32,-0.0453309,0.00150474
254,10.4,-0.0425949,0.00152277
256,10.48,-0.038685,0.00153876
258,10.56,-0.0340663,0.00154519
260,10.64,-0.0293702,0.00157131
262,10.72,-0.0246336,0.00158153
264,10.8,-0.0194379,0.0016038
266,10.88,-0.0134043,0.00161824
268,10.96,-0.00634334,0.00163117
270,11.04,0.00188349,0.00165664
272,11.12,0.0111802,0.00166419
274,11.2,0.0211629,0.00169704
276,11.28,0.0314212,0.0017138
278,11.36,0.0414765,0.00173253
280,11.44,0.0508183,0.00176624
282,11.52,0.0587681,0.00176788
284,11.6,0.0641871,0.00179948
286,11.68,0.0658989,0.00180246
288,11.76,0.0640012,0.0018149
290,11.84,0.0600948,0.00181423
292,11.92,0.0557035,0.00182113
294,12,0.0507414,0.00180378
296,12.08,0.0442085,0.00181254
298,12.16,0.035457,0.00178967
300,12.24,0.0254766,0.00179456
302,12.32,0.0157175,0.00179585
304,12.4,0.00716709,0.00178997
306,12.48,-0.000305135,0.00177186
308,12.56,-0.00699469,0.00176471
310,12.64,-0.0131876,0.00177845
312,12.72,-0.0191558,0.00176949
314,12.8,-0.0251515,0.00177009
316,12.88,-0.0309868,0.00177371
318,12.96,-0.0360268,0.00176526
320,13.04,-0.0396583,0.0017639
322,13.12,-0.0418882,0.00176341
324,13.2,-0.0431993,0.00177732
326,13.28,-0.0440468,0.00178958
328,13.36,-0.0444325,0.00179529
330,13.44,-0.0440695,0.00180602
332,13.52,-0.0426913,0.00181565
334,13.6,-0.0402904,0.00182782
336,13.68,-0.0370106,0.00183059
338,13.76,-0.0329972,0.00184789
340,13.84,-0.0283883,0.0018748
342,13.92,-0.0233181,0.00187449
344,14,-0.017935,0.00191263
346,14.08,-0.0125671,0.00191352
348,14.16,-0.00766493,0.00192565
350,14.24,-0.00365561,0.00195552
352,14.32,-0.00050252,0.00198645
354,14.4,0.00223236,0.0019966
356,14.48,0.00498897,0.00198967
358,14.56,0.00781648,0.00203602
360,14.64,0.0102834,0.00205755
362,14.72,0.0119313,0.00202196
364,14.8,0.0126728,0.00204905
366,14.88,0.0131575,0.00206896
368,14.96,0.0141221,0.00207362
370,15.04,0.0160664,0.00208386
372,15.12,0.0185855,0.00209915
374,15.2,0.0210587,0.00211178
376,15.28,0.02293,0.00212063
378,15.36,0.0242198,0.00214554
380,15.44,0.0252517,0.00217464
382,15.52,0.026341,0.00215102
384,15.6,0.0274082,0.00218398
386,15.68,0.0278875,0.00218946
388,15.76,0.0271827,0.00221127
390,15.84,0.024931,0.00218901
392,15.92,0.0215852,0.00222645
394,16,0.0177757,0.00221106
396,16.08,0.0140921,0.00223284
398,16.16,0.010557,0.00221601
400,16.24,0.00677703,0.00114241
402,16.32,0.00234985,0.00113656
404,16.4,-0.00288455,0.00113009
406,16.48,-0.00844064,0.00113506
408,16.56,-0.0137266,0.00112849
410,16.64,-0.0181799,0.00112009
412,16.72,-0.0216771,0.00112521
414,16.8,-0.0244321,0.00112216
416,16.88,-0.0266676,0.0011227
418,16.96,-0.0285317,0.00112618
420,17.04,-0.0298782,0.00113181
422,17.12,-0.0304886,0.00113069
424,17.2,-0.0301477,0.00113328
426,17.28,-0.0288159,0.00113582
428,17.36,-0.0267147,0.00114092
430,17.44,-0.0240866,0.00114597
432,17.52,-0.0211584,0.00115494
434,17.6,-0.0179433,0.00115821
436,17.68,-0.0143034,0.00117144
438,17.76,-0.0100977,0.00117434
440,17.84,-0.00524013,0.00118453
442,17.92,7.92821e-06,0.00119476
444,18,0.00524935,0.0012039
446,18.08,0.0100867,0.00121655
448,18.16,0.0142083,0.00122316
450,18.24,0.0176451,0.0012312
452,18.32,0.0205136,0.00123826
454,18.4,0.0229305,0.00125175
456,18.48,0.0249645,0.00125461
458,18.56,0.0265349,0.00125891
460,18.64,0.0275316,0.00126633
462,18.72,0.0278446,0.00127066
464,18.8001,0.0274209,0.00126874
466,18.8801,0.0263804,0.00127098
468,18.9601,0.0248756,0.00127236
470,19.0401,0.0230591,0.00127718
472,19.1201,0.0210647,0.00127159
474,19.2001,0.0189568,0.00127757
476,19.2801,0.0167838,0.00128016
478,19.3601,0.0145945,0.0012803
480,19.4401,0.0124344,0.00128304
482,19.5201,0.0103324,0.00127793
484,19.6001,0.00831185,0.0012818
486,19.6801,0.00639583,0.00128061
488,19.7601,0.00460021,0.00128138
490,19.8401,0.00285593,0.00129141
492,19.9201,0.00103958,0.00128863
493,19.9601,6.55343e-05,0.0012884
,,,
,,,
,,,
,,,
,,,