File: data/xrd_measurements/GeO2/F_of_Q_big.csv
,Q,F,dF
0,0.04,-0.404879,1e-07
5,0.24,-0.405549,1e-07
10,0.44,-0.395851,0.001358
15,0.64,-0.374202,0.000792214
20,0.84,-0.340118,0.00111679
25,1.04,-0.282494,0.000536866
30,1.24,-0.130975,0.000686019
35,1.44,0.111379,0.00100823
40,1.64,0.0885173,0.00117985
45,1.84,-0.0577895,0.00057385
50,2.04,-0.131081,0.00054448
55,2.24,-0.148337,0.000563504
60,2.44,-0.135613,0.000593885
65,2.64,-0.11906,0.000628978
70,2.84,-0.142049,0.000639606
75,3.04,-0.157906,0.000552687
80,3.24,-0.155154,0.00057
85,3.44,-0.135905,0.000598164
90,3.64,-0.0996037,0.000641793
95,3.84,-0.0442961,0.000705113
100,4.04,0.0360369,0.000779283
105,4.24,0.129008,0.000870049
110,4.44,0.187897,0.000943766
115,4.64,0.204058,0.000989556
120,4.84,0.195968,0.0010169
125,5.04,0.138276,0.00100689
130,5.24,0.0155205,0.000935435
135,5.44,-0.0814404,0.000890482
140,5.64,-0.115805,0.000887731
145,5.84,-0.118159,0.000924086
150,6.04,-0.109274,0.000960372
155,6.24,-0.104568,0.000999165
160,6.44,-0.0982584,0.00101972
165,6.64,-0.083952,0.00107495
170,6.83999,-0.0540601,0.00113179
175,7.03999,-0.00879245,0.00120917
180,7.23999,0.0368731,0.00128458
185,7.43999,0.0638825,0.00133718
190,7.63999,0.0631928,0.00136758
195,7.83999,0.0468159,0.00136385
200,8.03999,0.037182,0.00138554
205,8.23999,0.0364375,0.00140022
210,8.43999,0.0419106,0.00142643
215,8.63999,0.0401264,0.00146012
220,8.83999,0.0306528,0.0014606
225,9.03999,0.00755053,0.0014517
230,9.23999,-0.0177435,0.0014395
235,9.43999,-0.0428639,0.00142578
240,9.63999,-0.0588873,0.00142425
245,9.83999,-0.0625943,0.00144972
250,10.04,-0.0579823,0.0014639
255,10.24,-0.0477334,0.00149682
260,10.44,-0.0407705,0.001533
265,10.64,-0.0293702,0.00157131
270,10.84,-0.0165404,0.00160493
275,11.04,0.00188349,0.00165664
280,11.24,0.0262856,0.00170569
285,11.44,0.0508183,0.00176624
290,11.64,0.0655673,0.00180256
295,11.84,0.0600948,0.00181423
300,12.04,0.0477344,0.00180292
305,12.24,0.0254766,0.00179456
310,12.44,0.00331468,0.0017923
315,12.64,-0.0131876,0.00177845
320,12.84,-0.0281276,0.00178013
325,13.04,-0.0396583,0.0017639
330,13.24,-0.0436642,0.00179281
335,13.44,-0.0440695,0.00180602
340,13.64,-0.0387513,0.00184584
345,13.84,-0.0283883,0.0018748
350,14.04,-0.0152211,0.00192581
355,14.24,-0.00365561,0.00195552
360,14.44,0.00358399,0.00200021
365,14.64,0.0102834,0.00205755
370,14.84,0.0129012,0.00205508
375,15.04,0.0160664,0.00208386
380,15.24,0.0220864,0.00212066
385,15.44,0.0252517,0.00217464
390,15.64,0.0277586,0.00219133
395,15.84,0.024931,0.00218901
400,16.04,0.0158938,0.00220971
405,16.24,0.00677703,0.00114241
410,16.44,-0.00565937,0.00113773
415,16.64,-0.0181799,0.00112009
420,16.84,-0.0256009,0.00112377
425,17.04,-0.0298782,0.00113181
430,17.24,-0.0295932,0.0011357
435,17.44,-0.0240866,0.00114597
440,17.64,-0.0161852,0.00116589
445,17.84,-0.00524013,0.00118453
450,18.04,0.00774339,0.00121211
455,18.24,0.0176451,0.0012312
460,18.44,0.0239986,0.00125109
465,18.64,0.0275316,0.00126633
470,18.8401,0.0269682,0.00127442
475,19.0401,0.0230591,0.00127718
480,19.2401,0.0178754,0.0012795
485,19.4401,0.0124344,0.00128304
490,19.6401,0.00733932,0.00128099
495,19.8401,0.00285593,0.00129141
500,20.0401,-0.00209197,0.00128935
505,20.2401,-0.00866525,0.0012924
510,20.4401,-0.0144452,0.00129696
515,20.6401,-0.0171815,0.00130197
520,20.8401,-0.0174018,0.00131661
525,21.0401,-0.0155463,0.00131948
530,21.2401,-0.0114705,0.00134051
535,21.4401,-0.00549799,0.00136141
540,21.6401,0.00160955,0.00138451
545,21.8401,0.00889104,0.00140708
550,22.0401,0.015293,0.00142944
555,22.2401,0.0198738,0.00144299
560,22.4401,0.0218807,0.00145812
565,22.6401,0.0214191,0.00147126
570,22.8401,0.0188803,0.00147768
575,23.0401,0.0144018,0.00148104
580,23.2402,0.00817395,0.00147894
585,23.4402,0.00136697,0.00148326
590,23.6402,-0.00455146,0.00148498
595,23.8402,-0.0090112,0.00148135
600,24.0402,-0.0119019,0.00148713
605,24.2402,-0.0130958,0.00148773
610,24.4402,-0.0124577,0.00150419
615,24.6402,-0.0100978,0.00151877
620,24.8402,-0.00641203,0.00153116
625,25.0402,-0.00183838,0.00154718
630,25.2402,0.00312907,0.00155736
635,25.4402,0.00796266,0.00158253
640,25.6402,0.012002,0.00159869
645,25.8402,0.0145764,0.0016136
650,26.0402,0.0155283,0.00162689
655,26.2402,0.0151191,0.00163692
660,26.4402,0.0135167,0.00164411
665,26.6402,0.0106339,0.0016449
670,26.8402,0.00642076,0.00165889
675,27.0402,0.00158277,0.00166351
680,27.2402,-0.00273792,0.00165358
685,27.4402,-0.00577026,0.00166761
690,27.6403,-0.00764625,0.00168326
695,27.8403,-0.00861342,0.00168527
700,28.0403,-0.0086352,0.00173404
705,28.2403,-0.00744098,0.00175687
710,28.4403,-0.00486838,0.00177331
715,28.6403,-0.00137381,0.00178938
720,28.8403,0.00237983,0.00181528
725,29.0403,0.00583818,0.00183175
730,29.2403,0.0087217,0.00184644
735,29.4403,0.0107939,0.00187565
740,29.6403,0.0118392,0.00187867
745,29.8403,0.0116744,0.00189777
750,30.0403,0.0101294,0.00190142
755,30.2403,0.00739085,0.00190911
760,30.4403,0.00407961,0.00190879
765,30.6403,0.000835799,0.00191755
770,30.8403,-0.00193857,0.00192918
775,31.0403,-0.00412672,0.00191815
780,31.2403,-0.00562889,0.00193411
785,31.4403,-0.00635577,0.00194725
790,31.6403,-0.00623361,0.00195146
795,31.8403,-0.00519028,0.00197095
800,32.0404,-0.00326119,0.00197625
805,32.2404,-0.000744372,0.00200617
810,32.4404,0.00202272,0.00201441
815,32.6404,0.00470591,0.00202483
820,32.8404,0.0069892,0.00204635
825,33.0404,0.00856292,0.00205196
830,33.2404,0.00912944,0.0020754
835,33.4404,0.00866276,0.00208616
840,33.6404,0.00740542,0.00208797
845,33.8404,0.00561141,0.00209796
850,34.0404,0.00352192,0.0020945
855,34.2404,0.00132849,0.00210863
860,34.4404,-0.000789472,0.00210602
865,34.6404,-0.00265277,0.00211389
870,34.8404,-0.00409049,0.0021177
875,35.0404,-0.00494263,0.00211393
880,35.2404,-0.00504989,0.00214128
885,35.4404,-0.00427637,0.00214672
890,35.6404,-0.00276423,0.00217429
895,35.8404,-0.000838151,0.00217713
900,36.0404,0.00117399,0.00220366
905,36.2404,0.00296338,0.00220753
910,36.4405,0.00436505,0.00222143
915,36.6405,0.00527965,0.00233394
920,36.8405,0.00560816,0.00234385
925,37.0405,0.00527238,0.00248709
930,37.2405,0.00435339,0.00251033
935,37.4405,0.00300595,0.00250553
940,37.6405,0.00138518,0.00251878
945,37.8405,-0.00035204,0.00252894
950,38.0405,-0.00202658,0.0025372
955,38.2405,-0.00344379,0.00256034
960,38.4405,-0.0044087,0.00256343
965,38.6405,-0.00472873,0.00255628
970,38.8405,-0.00435416,0.00256588
975,39.0405,-0.00345709,0.00257809
980,39.2405,-0.00222877,0.00261038
985,39.4405,-0.000860418,0.00262704
990,39.6405,0.000468859,0.00263584
995,39.8405,0.00165361,0.00265861
1000,40.0405,0.00261597,0.00267346
1005,40.2405,0.00327814,0.00267458
1010,40.4405,0.00356257,0.00270062
1015,40.6405,0.00343478,0.00269729
1020,40.8406,0.00295158,0.00272409
1025,41.0406,0.00218136,0.00273867
1030,41.2406,0.00119253,0.00272574
1035,41.4406,5.42007e-05,0.00273229
1040,41.6406,-0.00113562,0.00276303
1045,41.8406,-0.00224028,0.00275919
1050,42.0406,-0.00312041,0.00277405
1055,42.2406,-0.00363667,0.00278955
1060,42.4406,-0.00365219,0.00278627
1065,42.6406,-0.00315231,0.00280985
1070,42.8406,-0.0022979,0.00280976
1075,43.0406,-0.00126343,0.00283439
1080,43.2406,-0.000223356,0.00283821
1085,43.4406,0.000647925,0.00285939
1090,43.6406,0.00122503,0.00288377
1095,43.8406,0.00151819,0.00288577
1100,44.0406,0.0015609,0.00291526
1105,44.2406,0.00138666,0.00291414
1110,44.4406,0.00102896,0.00292506
1115,44.6406,0.000522715,0.00291832
1120,44.8406,-8.03439e-05,0.00292162
1125,45.0406,-0.000717514,0.00294499
1130,45.2407,-0.00132591,0.00295746
1135,45.4407,-0.00184263,0.00298287
1140,45.6407,-0.00220479,0.00298425
1145,45.8407,-0.00236152,0.00300253
1150,46.0407,-0.00231619,0.0030113
1155,46.2407,-0.00208745,0.00302557
1160,46.4407,-0.00169394,0.00302086
1165,46.6407,-0.00115434,0.00306186
1170,46.8407,-0.000487274,0.0030785
1175,47.0407,0.000276132,0.00308776
1180,47.2407,0.00105503,0.00308297
1185,47.4407,0.00175616,0.00310041
1190,47.6407,0.00228625,0.00313069
1195,47.8407,0.00255204,0.00312502
1200,48.0407,0.00246027,0.00314938
1205,48.2407,0.00193776,0.00317716
1210,48.4407,0.00107734,0.00316316
1215,48.6407,5.37271e-05,0.00317123
1220,48.8407,-0.000957785,0.00318315
1225,49.0407,-0.00178191,0.00318008
1230,49.2407,-0.00224335,0.00319563
1235,49.4408,-0.00216681,0.0032142
1240,49.6408,-0.00137701,0.00325174
1245,49.8408,0.000301347,0.00324987
1248,49.9608,0.00180779,4608.38