File: data-release/xrd_measurements/SiO2/F_of_Q.csv
,Q,F,dF
0,0.02,0.0,1e-7
4,0.1,0.0,1e-7
8,0.18,0.0,1e-7
12,0.26,0.0,1e-7
16,0.34,0.0,1e-7
20,0.42,0.0,1e-7
24,0.5,0.0,1e-7
28,0.58,-0.223442,0.000534197
32,0.66,-0.211629,0.000639693
36,0.74,-0.194868,0.000729592
40,0.82,-0.183984,0.000881503
44,0.9,-0.169913,0.00103808
48,0.98,-0.156809,0.0012343
52,1.06,-0.134442,0.00137231
56,1.14,-0.0991978,0.00154856
60,1.22,-0.0579386,0.00178174
64,1.3,0.0186544,0.000680269
68,1.38,0.0918724,0.000782444
72,1.46,0.143785,0.000881722
76,1.54,0.149245,0.00101858
80,1.62,0.110337,0.00104404
84,1.7,0.0530031,0.00104197
88,1.78,0.00816673,0.000990881
92,1.86,-0.0393435,0.000973632
96,1.94,-0.071736,0.000963852
100,2.02,-0.0938103,0.000936267
104,2.1,-0.113663,0.000898169
108,2.18,-0.126073,0.000914797
112,2.26,-0.137869,0.000930637
116,2.34,-0.145804,0.000923355
120,2.42,-0.146516,0.000911465
124,2.5,-0.144367,0.00051302
128,2.58,-0.129011,0.000546229
132,2.66,-0.0867801,0.000619611
136,2.74,-0.0205315,0.000716901
140,2.82,0.0426918,0.000804423
144,2.9,0.0660478,0.000864098
148,2.98,0.0583063,0.000868301
152,3.06,0.0357136,0.000880982
156,3.14,0.0141884,0.000867492
160,3.22,-0.00630706,0.000871223
164,3.3,-0.0175508,0.000865225
168,3.38,-0.0325504,0.000868605
172,3.46,-0.0410707,0.000873142
176,3.54,-0.0482743,0.000892865
180,3.62,-0.0517318,0.000891551
184,3.7,-0.0524909,0.00091481
188,3.78,-0.0552222,0.000939658
192,3.86,-0.0534156,0.000938627
196,3.94,-0.0499575,0.000278505
200,4.02,-0.0469972,0.000286015
204,4.1,-0.0430929,0.00029511
208,4.18,-0.0374162,0.000305437
212,4.26,-0.0310942,0.000315047
216,4.34,-0.0240303,0.000325367
220,4.42,-0.0157363,0.000335713
224,4.5,-0.00701717,0.000348809
228,4.58,0.00327785,0.000361987
232,4.66,0.0170774,0.000375216
236,4.74,0.033972,0.000396167
240,4.82,0.0585711,0.00041461
244,4.9,0.0887229,0.000442421
248,4.98,0.12483,0.0004694
252,5.06,0.16385,0.000496868
256,5.14,0.195499,0.000522819
260,5.22,0.212082,0.000540387
264,5.3,0.203643,0.00036223
268,5.38,0.175645,0.000358106
272,5.46,0.134306,0.000346496
276,5.54,0.0893983,0.000334601
280,5.62,0.0503428,0.000320751
284,5.7,0.0164521,0.000312126
288,5.78,-0.00897041,0.000302144
292,5.86,-0.0282363,0.00029595
296,5.94,-0.0430215,0.00029279
300,6.02,-0.0537349,0.00029189
304,6.1,-0.0610295,0.000292697
308,6.18,-0.0659669,0.00029286
312,6.25999,-0.0701994,0.000294495
316,6.33999,-0.0728718,0.000298421
320,6.41999,-0.074405,0.00030208
324,6.49999,-0.0755288,0.000302135
328,6.57999,-0.0775024,0.00030833
332,6.65999,-0.0779823,0.000308995
336,6.73999,-0.0779973,0.000313468
340,6.81999,-0.0773217,0.00032112
344,6.89999,-0.0758414,0.000322094
348,6.97999,-0.0717722,0.000329805
352,7.05999,-0.0664488,0.000338675
356,7.13999,-0.0590648,0.000348147
360,7.21999,-0.0478852,0.000358495
364,7.29999,-0.034838,0.000368567
368,7.37999,-0.0193513,0.000384065
372,7.45999,-0.000186261,0.000399043
376,7.53999,0.019099,0.000415232
380,7.61999,0.0373637,0.000430739
384,7.69999,0.0529844,0.000443611
388,7.77999,0.0641578,0.000457257
392,7.85999,0.0701938,0.0004624
396,7.93999,0.0707619,0.000466507
400,8.01999,0.0656668,0.00046808
404,8.1,0.0579784,0.000470721
408,8.18,0.0492702,0.000464578
412,8.26,0.0401364,0.000461084
416,8.34,0.0316035,0.000459466
420,8.42,0.0239742,0.00045424
424,8.5,0.0167966,0.000456706
428,8.58001,0.0126567,0.000454273
432,8.66001,0.00745815,0.000458261
436,8.74001,0.0062494,0.000456973
440,8.82001,0.00378564,0.000456295
444,8.90001,0.00302691,0.000459414
448,8.98002,0.00198591,0.000465633
452,9.06002,0.00326944,0.000467732
456,9.14002,0.00418292,0.000472404
460,9.22002,0.00530102,0.000472372
464,9.30002,0.0066833,0.000476467
468,9.38002,0.00782264,0.000480982
472,9.46003,0.00961147,0.000485518
476,9.54003,0.0116656,0.000485247
480,9.62003,0.0132542,0.00049101
484,9.70003,0.0142291,0.000497639
488,9.78003,0.0153925,0.000499329
492,9.86004,0.0150247,0.000504294
496,9.94004,0.0154975,0.000500259
500,10.02,0.0152859,0.000502348
504,10.1,0.0114568,0.000509297
508,10.18,0.00982857,0.000501179
512,10.26,0.00532578,0.00050316
516,10.34,-7.62064e-05,0.00050306
520,10.42,-0.00404528,0.000499217
524,10.5001,-0.0117837,0.00050143
528,10.5801,-0.0170051,0.000491336
532,10.6601,-0.0229392,0.000496816
536,10.7401,-0.0277678,0.000492457
540,10.8201,-0.0324089,0.000491032
544,10.9001,-0.0367464,0.000490275
548,10.9801,-0.0383787,0.000484846
552,11.0601,-0.0407765,0.000496476
556,11.1401,-0.0407953,0.000492006
560,11.2201,-0.0432956,0.000496907
564,11.3001,-0.0410409,0.000500341
568,11.3801,-0.0377455,0.000498897
572,11.4601,-0.0366634,0.000511181
576,11.5401,-0.031824,0.000516449
580,11.6201,-0.0265313,0.000522449
584,11.7001,-0.0197469,0.000529062
588,11.7801,-0.0118341,0.000532254
592,11.8601,-0.0033617,0.000545259
596,11.9401,0.00648687,0.000563145
600,12.0201,0.0165318,0.000565681
604,12.1001,0.0261753,0.000577135
608,12.1801,0.0350935,0.000588909
612,12.2601,0.0429402,0.00059819
616,12.3401,0.0488824,0.000605071
620,12.4201,0.0546661,0.000607769
624,12.5001,0.0559224,0.000623476
628,12.5801,0.0550747,0.000623916
632,12.6601,0.053695,0.00062308
636,12.7401,0.0500033,0.000626114
640,12.8201,0.044061,0.000623192
644,12.9001,0.0368466,0.000615841
648,12.9801,0.0289243,0.000613094
652,13.0601,0.0227381,0.000607907
656,13.1401,0.01363,0.000608914
660,13.2201,0.00588085,0.000601527
664,13.3001,0.000633166,0.000597411
668,13.3801,-0.00583414,0.000592944
672,13.4601,-0.0102669,0.000584724
676,13.5401,-0.0147567,0.00059333
680,13.6201,-0.0187171,0.000596466
684,13.7001,-0.0207647,0.000587661
688,13.7801,-0.0223697,0.000592338
692,13.8601,-0.022878,0.000592099
696,13.9401,-0.0240384,0.000595008
700,14.0201,-0.0238136,0.000595286
704,14.1001,-0.0235531,0.000599598
708,14.1801,-0.0220342,0.000608362
712,14.2601,-0.0204671,0.000610467
716,14.3401,-0.0182543,0.00061312
720,14.4201,-0.0147543,0.000613979
724,14.5001,-0.0135963,0.000624124
728,14.5801,-0.0112041,0.000627826
732,14.6601,-0.00903081,0.000638509
736,14.7401,-0.00552455,0.000641327
740,14.8201,-0.00273395,0.000638247
744,14.9002,-0.00169557,0.000650122
748,14.9802,-0.000622591,0.000652568
752,15.0602,0.000908884,0.00065908
756,15.1402,0.00168814,0.000659587
760,15.2202,0.000958355,0.000662202
764,15.3002,0.00116109,0.000662025
768,15.3802,3.30286e-05,0.000669834
772,15.4602,-0.000582351,0.000667539
776,15.5402,-0.000307586,0.000664929
780,15.6202,-0.00188105,0.000674166
784,15.7002,-0.00341329,0.000676812
788,15.7802,-0.00351923,0.000678964
792,15.8602,-0.00407993,0.000686127
796,15.9402,-0.00319169,0.000685266
800,16.0202,-0.00103976,0.000691182
804,16.1002,-0.000829205,0.000699891
808,16.1802,0.00225352,0.000704908
812,16.2602,0.0046675,0.000705901
816,16.3402,0.00845091,0.000712876
820,16.4202,0.00923836,0.000716101
824,16.5002,0.0130153,0.00072851
828,16.5802,0.0143565,0.000731879
832,16.6602,0.017244,0.000732262
836,16.7402,0.0205221,0.000734753
840,16.8202,0.0205634,0.000745412
844,16.9002,0.0230073,0.000744185
848,16.9802,0.0228669,0.000753708
852,17.0602,0.0228125,0.000752043
856,17.1402,0.0218645,0.000755903
860,17.2202,0.0198875,0.000755356
864,17.3002,0.0182559,0.000753671
868,17.3802,0.0129122,0.000754741
872,17.4602,0.00964126,0.000760945
876,17.5402,0.00527917,0.000753475
880,17.6202,0.00284201,0.000749736
884,17.7002,-0.00209911,0.000750095
888,17.7802,-0.00645661,0.000760569
892,17.8602,-0.00992252,0.000752377
896,17.9402,-0.0145072,0.000753089
900,18.0202,-0.0163677,0.000752744
904,18.1002,-0.0170739,0.000749656
908,18.1802,-0.0205814,0.000754137
912,18.2602,-0.0202913,0.000751624
916,18.3402,-0.0222302,0.000757299
920,18.4202,-0.0209792,0.000758468
924,18.5002,-0.0219594,0.000760598
928,18.5802,-0.0216633,0.000762733
932,18.6602,-0.0191776,0.000767489
936,18.7402,-0.0196399,0.000780389
940,18.8202,-0.0163038,0.00078843
944,18.9002,-0.0134741,0.000783657
948,18.9802,-0.0113668,0.000788414
952,19.0602,-0.0108482,0.000808212
956,19.1402,-0.00657039,0.000813456
960,19.2202,-0.00347887,0.000812485
964,19.3003,-0.000860388,0.000820489
968,19.3803,0.00440817,0.000827572
972,19.4603,0.00548286,0.000832716
976,19.5403,0.00902804,0.000843499
980,19.6203,0.0126237,0.000839199
984,19.7003,0.0131934,0.000864773
988,19.7803,0.0142513,0.000852904
992,19.8603,0.0149887,0.000864405
996,19.9403,0.0149952,0.000868944
998,19.9803,0.0151919,0.000870081