File: data-release/xrd_measurements/SiO2/T_of_r.csv
,r,T
0,1e-05,0.0
4,0.04,0.0
8,0.08,0.0
12,0.12,0.0
16,0.16,0.0
20,0.2,0.0
24,0.24,0.0
28,0.28,0.0
32,0.32,0.0
36,0.36,0.0
40,0.4,0.0
44,0.44,0.0
48,0.48,0.0
52,0.52,0.0
56,0.56,0.0
60,0.6,0.0
64,0.64,0.0
68,0.68,0.0
72,0.72,0.0
76,0.76,0.0
80,0.8,0.0
84,0.84,0.0
88,0.88,0.0
92,0.92,0.0
96,0.96,0.0
100,1.0,0.0
104,1.04,0.0
108,1.08,0.0
112,1.12,0.0
116,1.16,0.0
120,1.2,0.0
124,1.24,0.0
128,1.28,0.0
132,1.32,0.0
136,1.36,0.0
140,1.4,0.011357
144,1.44,0.01391
148,1.48,0.136093
152,1.52,0.693169
156,1.56,1.723128
160,1.6,2.563463
164,1.64,2.443357
168,1.68,1.472473
172,1.72,0.499527
176,1.76,0.063457
180,1.8,0.014619
184,1.84,0.044558
188,1.88,0.057762
192,1.92,0.060811
196,1.96,0.052136
200,2.0,0.040091
204,2.04,0.032747
208,2.08,0.028203
212,2.12,0.030011
216,2.16,0.03579
220,2.2,0.034196
224,2.24,0.027798
228,2.28,0.027116
232,2.32,0.030201
236,2.36,0.035587
240,2.4,0.069733
244,2.44,0.196199
248,2.48,0.48985
252,2.52,0.970674
256,2.56,1.544322
260,2.6,2.013602
264,2.64,2.171143
268,2.68,1.933183
272,2.72,1.418541
276,2.76,0.869973
280,2.8,0.474027
284,2.84,0.269976
288,2.88,0.206992
292,2.92,0.225236
296,2.96,0.279083
300,3.0,0.3386
304,3.04,0.393007
308,3.08,0.436183
312,3.12,0.450818
316,3.16,0.42651
320,3.2,0.383034
324,3.24,0.349948
328,3.28,0.335983
332,3.32,0.341068
336,3.36,0.372387
340,3.4,0.424083
344,3.44,0.472761
348,3.48,0.510313
352,3.52,0.549395
356,3.56,0.594912
360,3.6,0.640185
364,3.64,0.682296
368,3.68,0.722375
372,3.72,0.763269
376,3.76,0.806908
380,3.8,0.845751
384,3.84,0.875368
388,3.88,0.910922
392,3.92,0.961501
396,3.96,1.010914
400,4.0,1.053524
404,4.04,1.10839
408,4.08,1.177009
412,4.12,1.232077
416,4.16,1.248794
420,4.2,1.21356
424,4.24,1.129493
428,4.28,1.030521
432,4.32,0.949062
436,4.36,0.88445
440,4.4,0.842312
444,4.44,0.847889
448,4.48,0.887559
452,4.52,0.918593
456,4.56,0.944237
460,4.6,0.991469
464,4.64,1.045746
468,4.68,1.089604
472,4.72,1.144632
476,4.76,1.218012
480,4.8,1.283723
484,4.84,1.337298
488,4.88,1.395233
492,4.92,1.45378
496,4.96,1.501434
500,5.0,1.536591
504,5.04,1.553427
508,5.08,1.551403
512,5.12,1.543259
516,5.16,1.523162
520,5.2,1.468603
524,5.24,1.385603
528,5.28,1.30298
532,5.32,1.23197
536,5.36,1.172023
540,5.4,1.130045
544,5.44,1.109142
548,5.48,1.104841
552,5.52,1.113778
556,5.56,1.127468
560,5.6,1.135276
564,5.64,1.142424
568,5.68,1.161958
572,5.72,1.192059
576,5.76,1.220154
580,5.8,1.238866
584,5.84,1.250288
588,5.88,1.265821
592,5.92,1.294761
596,5.96,1.32622
600,6.0,1.343738
604,6.04,1.357312
608,6.08,1.387903
612,6.12,1.427898
616,6.16,1.455415
620,6.2,1.471621
624,6.24,1.486611
628,6.28,1.495557
632,6.32,1.500079
636,6.36,1.515157
640,6.4,1.535331
644,6.44,1.539763
648,6.48,1.533511
652,6.52,1.535645
656,6.56,1.540883
660,6.6,1.535082
664,6.64,1.523185
668,6.68,1.515972
672,6.72,1.515661
676,6.76,1.517596
680,6.8,1.510855
684,6.84,1.496123
688,6.88,1.496323
692,6.92,1.517697
696,6.96,1.533786
700,7.0,1.538119
704,7.04,1.555763
708,7.08,1.588581
712,7.12,1.617205
716,7.16,1.644895
720,7.2,1.676615
724,7.24,1.695508
728,7.28,1.703473
732,7.32,1.724471
736,7.36,1.753326
740,7.4,1.767174
744,7.44,1.771551
748,7.48,1.778611
752,7.52,1.778428
756,7.56,1.768071
760,7.6,1.761059
764,7.64,1.757175
768,7.68,1.747291
772,7.72,1.736256
776,7.76,1.72935
780,7.8,1.721166
784,7.84,1.712183
788,7.88,1.708816
792,7.92,1.709941
796,7.96,1.714775
800,8.0,1.728496
804,8.04,1.747961
808,8.08,1.762678
812,8.12,1.773526
816,8.16,1.791877
820,8.2,1.820734
824,8.24,1.848958
828,8.28,1.866332
832,8.32,1.879408
836,8.36,1.901485
840,8.4,1.928306
844,8.44,1.947367
848,8.48,1.966239
852,8.52,1.994643
856,8.56,2.014753
860,8.6,2.015381
864,8.64,2.022897
868,8.68,2.051691
872,8.72,2.074594
876,8.76,2.079108
880,8.8,2.087873
884,8.84,2.104136
888,8.88,2.107763
892,8.92,2.104391
896,8.96,2.113662
900,9.0,2.127744
904,9.04,2.131135
908,9.08,2.131346
912,9.12,2.138883
916,9.16,2.148083
920,9.2,2.152434
924,9.24,2.154982
928,9.28,2.159652
932,9.32,2.166563
936,9.36,2.175726
940,9.4,2.186505
944,9.44,2.193907
948,9.48,2.197281
952,9.52,2.210588
956,9.56,2.24038
960,9.6,2.262573
964,9.64,2.259782
968,9.68,2.25885
972,9.72,2.281459
976,9.76,2.299392
980,9.8,2.291257
984,9.84,2.284739
988,9.88,2.299035
992,9.92,2.312496
996,9.96,2.312666
1000,10.0,2.314008