File: data/xrd_measurements/SiO2/I_Q
 unpublished http://www.isis.rl.ac.uk/disordered/manuals/atlas/sio2_orc.htm
 i(Q)
 Q i(Q) error
  0.200000E-01  0.000000E+00  0.000000E+00
  0.240000E+00  0.000000E+00  0.000000E+00
  0.460000E+00  0.000000E+00  0.000000E+00
  0.680000E+00 -0.206465E+00  0.651390E-03
  0.900000E+00 -0.169913E+00  0.103808E-02
  0.112000E+01 -0.110584E+00  0.153005E-02
  0.134000E+01  0.560417E-01  0.731711E-03
  0.156000E+01  0.142432E+00  0.102790E-02
  0.178000E+01  0.816673E-02  0.990881E-03
  0.200000E+01 -0.893417E-01  0.950175E-03
  0.222000E+01 -0.129087E+00  0.891419E-03
  0.244000E+01 -0.148291E+00  0.886231E-03
  0.266000E+01 -0.867801E-01  0.619611E-03
  0.288000E+01  0.650788E-01  0.848821E-03
  0.310000E+01  0.255397E-01  0.868814E-03
  0.332000E+01 -0.242772E-01  0.857658E-03
  0.354000E+01 -0.482743E-01  0.892865E-03
  0.376000E+01 -0.539541E-01  0.917536E-03
  0.398000E+01 -0.486042E-01  0.282442E-03
  0.420000E+01 -0.363597E-01  0.304774E-03
  0.442000E+01 -0.157363E-01  0.335713E-03
  0.464000E+01  0.137623E-01  0.371715E-03
  0.486000E+01  0.730810E-01  0.428192E-03
  0.508000E+01  0.171784E+00  0.505401E-03
  0.530000E+01  0.203643E+00  0.362230E-03
  0.552000E+01  0.100829E+00  0.336940E-03
  0.574000E+01  0.301130E-02  0.306638E-03
  0.596000E+01 -0.462401E-01  0.294111E-03
  0.618000E+01 -0.659669E-01  0.292860E-03
  0.639999E+01 -0.742253E-01  0.300301E-03
  0.661999E+01 -0.783991E-01  0.312902E-03
  0.683999E+01 -0.765558E-01  0.319369E-03
  0.705999E+01 -0.664488E-01  0.338675E-03
  0.727999E+01 -0.393790E-01  0.368224E-03
  0.749999E+01  0.869052E-02  0.407856E-03
  0.771999E+01  0.577801E-01  0.447999E-03
  0.793999E+01  0.707619E-01  0.466507E-03
  0.816000E+01  0.525478E-01  0.462968E-03
  0.838000E+01  0.275764E-01  0.456481E-03
  0.860001E+01  0.113669E-01  0.453364E-03
  0.882001E+01  0.378564E-02  0.456295E-03
  0.904002E+01  0.273347E-02  0.467637E-03
  0.926002E+01  0.676434E-02  0.475151E-03
  0.948003E+01  0.993041E-02  0.485976E-03
  0.970003E+01  0.142291E-01  0.497639E-03
  0.992004E+01  0.160516E-01  0.503613E-03
  0.101400E+02  0.103486E-01  0.510780E-03
  0.103600E+02 -0.878570E-03  0.500298E-03
  0.105801E+02 -0.170051E-01  0.491336E-03
  0.108001E+02 -0.312174E-01  0.487586E-03
  0.110201E+02 -0.397098E-01  0.491834E-03
  0.112401E+02 -0.420935E-01  0.494393E-03
  0.114601E+02 -0.366634E-01  0.511181E-03
  0.116801E+02 -0.207928E-01  0.522112E-03
  0.119001E+02  0.214500E-02  0.549207E-03
  0.121201E+02  0.284391E-01  0.578530E-03
  0.123401E+02  0.488824E-01  0.605071E-03
  0.125601E+02  0.570650E-01  0.625195E-03
  0.127801E+02  0.461844E-01  0.616580E-03
  0.130001E+02  0.272713E-01  0.610059E-03
  0.132201E+02  0.588085E-02  0.601527E-03
  0.134401E+02 -0.100896E-01  0.589555E-03
  0.136601E+02 -0.192764E-01  0.594073E-03
  0.138801E+02 -0.228336E-01  0.589917E-03
  0.141001E+02 -0.235531E-01  0.599598E-03
  0.143201E+02 -0.191408E-01  0.610820E-03
  0.145401E+02 -0.114537E-01  0.630516E-03
  0.147601E+02 -0.558990E-02  0.638007E-03
  0.149802E+02 -0.622591E-03  0.652568E-03
  0.152002E+02  0.330087E-03  0.665871E-03
  0.154202E+02 -0.198420E-02  0.672250E-03
  0.156402E+02 -0.251628E-02  0.672774E-03
  0.158602E+02 -0.407993E-02  0.686127E-03
  0.160802E+02 -0.527711E-04  0.693899E-03
  0.163002E+02  0.424332E-02  0.707706E-03
  0.165202E+02  0.137260E-01  0.728476E-03
  0.167402E+02  0.205221E-01  0.734753E-03
  0.169602E+02  0.228025E-01  0.750875E-03
  0.171802E+02  0.212901E-01  0.756987E-03
  0.174002E+02  0.116471E-01  0.769895E-03
  0.176202E+02  0.284201E-02  0.749736E-03
  0.178402E+02 -0.892317E-02  0.754341E-03
  0.180602E+02 -0.161665E-01  0.757874E-03
  0.182802E+02 -0.206262E-01  0.752570E-03
  0.185002E+02 -0.219594E-01  0.760598E-03
  0.187202E+02 -0.194618E-01  0.776917E-03
  0.189402E+02 -0.134837E-01  0.790787E-03
  0.191602E+02 -0.516025E-02  0.812212E-03
  0.193803E+02  0.440817E-02  0.827572E-03
  0.196003E+02  0.117693E-01  0.842385E-03
  0.198203E+02  0.148283E-01  0.851042E-03
  0.200403E+02  0.173889E-01  0.859919E-03
  0.202603E+02  0.134551E-01  0.871707E-03
  0.204803E+02  0.984511E-02  0.874801E-03
  0.207003E+02  0.794999E-02  0.882998E-03
  0.209203E+02  0.338610E-02  0.890086E-03
  0.211403E+02  0.149965E-02  0.895309E-03
  0.213603E+02 -0.130719E-02  0.904587E-03
  0.215803E+02 -0.283825E-03  0.911440E-03
  0.218003E+02 -0.402698E-02  0.919605E-03
  0.220203E+02 -0.605785E-02  0.923942E-03
  0.222403E+02 -0.727630E-02  0.936840E-03
  0.224603E+02 -0.986084E-02  0.936147E-03
  0.226803E+02 -0.105983E-01  0.943136E-03
  0.229003E+02 -0.991056E-02  0.959300E-03
  0.231203E+02 -0.735306E-02  0.972224E-03
  0.233403E+02 -0.406233E-02  0.980564E-03
  0.235603E+02  0.217703E-03  0.100128E-02
  0.237804E+02  0.549082E-02  0.101325E-02
  0.240004E+02  0.864856E-02  0.103522E-02
  0.242204E+02  0.123330E-01  0.103285E-02
  0.244404E+02  0.122945E-01  0.104603E-02
  0.246604E+02  0.895045E-02  0.106215E-02
  0.248804E+02  0.622867E-02  0.106596E-02
  0.251004E+02  0.773263E-03  0.106298E-02
  0.253204E+02 -0.548703E-03  0.105507E-02
  0.255404E+02 -0.404291E-02  0.106238E-02
  0.257604E+02 -0.755582E-02  0.108046E-02
  0.259804E+02 -0.845743E-02  0.109230E-02
  0.262004E+02 -0.670668E-02  0.108632E-02
  0.264204E+02 -0.553178E-02  0.109699E-02
  0.266404E+02 -0.472651E-02  0.112451E-02
  0.268604E+02 -0.245528E-02  0.112415E-02
  0.270804E+02 -0.171127E-03  0.114629E-02
  0.273004E+02  0.109850E-02  0.115420E-02
  0.275204E+02  0.378188E-02  0.116101E-02
  0.277404E+02  0.358631E-02  0.117708E-02
  0.279604E+02  0.447895E-02  0.119780E-02
  0.281805E+02  0.690989E-02  0.119449E-02
  0.284005E+02  0.444994E-02  0.120792E-02
  0.286205E+02  0.494414E-02  0.123290E-02
  0.288405E+02  0.372228E-02  0.123022E-02
  0.290605E+02  0.297147E-02  0.123027E-02
  0.292805E+02 -0.606150E-03  0.124601E-02
  0.295005E+02 -0.801414E-03  0.122748E-02
  0.297205E+02 -0.259614E-02  0.123187E-02
  0.299405E+02 -0.581357E-02  0.126751E-02
  0.301605E+02 -0.655245E-02  0.125686E-02
  0.303805E+02 -0.578002E-02  0.127425E-02
  0.306005E+02 -0.368788E-02  0.128259E-02
  0.308205E+02 -0.214462E-02  0.129582E-02
  0.310405E+02 -0.353521E-03  0.131227E-02
  0.312605E+02 -0.871349E-03  0.132988E-02
  0.314805E+02  0.303588E-02  0.133170E-02
  0.317005E+02  0.493327E-02  0.133563E-02
  0.319205E+02  0.582347E-02  0.136844E-02
  0.321405E+02  0.418956E-02  0.135940E-02
  0.323605E+02  0.382953E-02  0.138056E-02
  0.325806E+02  0.263282E-02  0.137883E-02
  0.328006E+02  0.170149E-02  0.138229E-02
  0.330206E+02  0.120235E-02  0.140262E-02
  0.332406E+02 -0.819997E-04  0.140655E-02
  0.334606E+02 -0.133241E-02  0.139302E-02
  0.336806E+02 -0.256133E-02  0.142473E-02
  0.339006E+02 -0.301566E-02  0.142956E-02
  0.341206E+02 -0.204746E-02  0.143016E-02
  0.343406E+02 -0.323582E-02  0.144903E-02
  0.345606E+02 -0.338084E-02  0.145923E-02
  0.347806E+02 -0.208194E-02  0.147644E-02
  0.350006E+02  0.334672E-03  0.147861E-02
  0.352206E+02  0.706584E-03  0.150638E-02
  0.354406E+02  0.188570E-02  0.150880E-02
  0.356606E+02  0.299036E-02  0.151012E-02
  0.358806E+02  0.320173E-02  0.152918E-02
  0.361006E+02  0.139579E-02  0.156366E-02
  0.363206E+02  0.184440E-02  0.153675E-02
  0.365406E+02  0.133707E-02  0.157356E-02
  0.367607E+02  0.631281E-03  0.157806E-02
  0.369807E+02 -0.595996E-03  0.160380E-02
  0.372007E+02 -0.331614E-02  0.159361E-02
  0.374207E+02 -0.506480E-04  0.158652E-02
  0.376407E+02 -0.372399E-02  0.161535E-02
  0.378607E+02 -0.350263E-02  0.162766E-02
  0.380807E+02 -0.291755E-02  0.163423E-02
  0.383007E+02 -0.206733E-02  0.165488E-02
  0.385207E+02 -0.298950E-02  0.164732E-02
  0.387407E+02  0.511335E-04  0.165903E-02
  0.389607E+02 -0.458496E-04  0.167112E-02
  0.391807E+02  0.120574E-02  0.167887E-02
  0.394007E+02  0.339356E-02  0.168721E-02
  0.396207E+02  0.255158E-02  0.170249E-02
  0.398407E+02  0.384203E-04  0.215121E-02
  0.400607E+02  0.793029E-03  0.210256E-02
  0.402807E+02  0.309160E-02  0.212796E-02
  0.405007E+02 -0.307385E-03  0.210141E-02
  0.407207E+02  0.107617E-02  0.212780E-02
  0.409407E+02  0.130996E-03  0.214686E-02
  0.411608E+02 -0.133101E-02  0.215119E-02
  0.413808E+02 -0.168521E-02  0.215911E-02
  0.416008E+02 -0.300523E-02  0.215462E-02
  0.418208E+02 -0.433439E-02  0.220194E-02
  0.420408E+02 -0.121298E-02  0.219888E-02
  0.422608E+02 -0.410098E-02  0.224366E-02
  0.424808E+02 -0.280117E-03  0.221355E-02
  0.427008E+02  0.281054E-02  0.221800E-02
  0.429208E+02 -0.358407E-03  0.225381E-02
  0.431408E+02  0.435772E-03  0.229595E-02
  0.433608E+02  0.148928E-02  0.229149E-02
  0.435808E+02 -0.361832E-03  0.229101E-02
  0.438008E+02  0.302147E-02  0.228606E-02
  0.440208E+02  0.664526E-04  0.239707E-02
  0.442408E+02  0.102954E-02  0.230104E-02
  0.444608E+02  0.898715E-03  0.234901E-02
  0.446808E+02  0.142703E-02  0.235805E-02
  0.449008E+02 -0.754208E-03  0.238963E-02
  0.451208E+02  0.229716E-03  0.242044E-02
  0.453408E+02 -0.109193E-02  0.233256E-02
  0.455609E+02  0.255670E-04  0.235546E-02
  0.457809E+02 -0.244570E-02  0.244502E-02
  0.460009E+02 -0.108221E-02  0.249023E-02
  0.462209E+02  0.314637E-03  0.242917E-02
  0.464409E+02  0.264008E-03  0.245594E-02
  0.466609E+02  0.198991E-02  0.244925E-02
  0.468809E+02 -0.173785E-02  0.252763E-02
  0.471009E+02 -0.101262E-02  0.254853E-02
  0.473209E+02  0.390051E-03  0.256423E-02
  0.475409E+02  0.228285E-02  0.253629E-02
  0.477609E+02  0.911817E-03  0.259066E-02
  0.479809E+02  0.185313E-02  0.254965E-02
  0.482009E+02  0.878914E-03  0.263379E-02
  0.484209E+02  0.160310E-02  0.254308E-02
  0.486409E+02 -0.130453E-02  0.262031E-02
  0.488609E+02 -0.254500E-02  0.266383E-02
  0.490809E+02  0.671301E-03  0.258281E-02
  0.493009E+02 -0.669311E-03  0.264331E-02
  0.495209E+02 -0.225624E-02  0.260479E-02
  0.497409E+02 -0.408711E-03  0.267355E-02
  0.499610E+02 -0.522469E-03  0.268355E-02
  0.501810E+02 -0.159277E-02  0.280133E-02
  0.504010E+02  0.577120E-03  0.272876E-02
  0.506210E+02 -0.566542E-02  0.278747E-02
  0.508410E+02 -0.802469E-03  0.276830E-02
  0.509810E+02  0.177367E-02  0.284022E-02