File: data/xrd_measurements/SiO2/T_r
 unpublished http://www.isis.rl.ac.uk/disordered/manuals/atlas/sio2_orc.htm
 T(r)
 r T(r)
1.00e-5	2.301817e-6
0.04	0.063191
0.08	0.117333
0.12	0.134791
0.16	0.109040
0.20	0.084576
0.24	0.093733
0.28	0.099077
0.32	0.066835
0.36	0.038564
0.40	0.049450
0.44	0.058087
0.48	0.033077
0.52	0.010145
0.56	0.011122
0.60	0.010061
0.64	-8.836389e-6
0.68	2.211988e-3
0.72	0.015852
0.76	0.018703
0.80	8.711219e-5
0.84	-0.026123
0.88	-0.028605
0.92	3.267467e-3
0.96	0.034563
1.00	0.034420
1.04	0.018846
1.08	9.401456e-3
1.12	1.313388e-4
1.16	-0.011645
1.20	-0.011440
1.24	4.460245e-3
1.28	0.016951
1.32	0.011702
1.36	6.115288e-3
1.40	0.011357
1.44	0.013910
1.48	0.136093
1.52	0.693169
1.56	1.723128
1.60	2.563463
1.64	2.443357
1.68	1.472473
1.72	0.499527
1.76	0.063457
1.80	0.014619
1.84	0.044558
1.88	0.057762
1.92	0.060811
1.96	0.052136
2.00	0.040091
2.04	0.032747
2.08	0.028203
2.12	0.030011
2.16	0.035790
2.20	0.034196
2.24	0.027798
2.28	0.027116
2.32	0.030201
2.36	0.035587
2.40	0.069733
2.44	0.196199
2.48	0.489850
2.52	0.970674
2.56	1.544322
2.60	2.013602
2.64	2.171143
2.68	1.933183
2.72	1.418541
2.76	0.869973
2.80	0.474027
2.84	0.269976
2.88	0.206992
2.92	0.225236
2.96	0.279083
3.00	0.338600
3.04	0.393007
3.08	0.436183
3.12	0.450818
3.16	0.426510
3.20	0.383034
3.24	0.349948
3.28	0.335983
3.32	0.341068
3.36	0.372387
3.40	0.424083
3.44	0.472761
3.48	0.510313
3.52	0.549395
3.56	0.594912
3.60	0.640185
3.64	0.682296
3.68	0.722375
3.72	0.763269
3.76	0.806908
3.80	0.845751
3.84	0.875368
3.88	0.910922
3.92	0.961501
3.96	1.010914
4.00	1.053524
4.04	1.108390
4.08	1.177009
4.12	1.232077
4.16	1.248794
4.20	1.213560
4.24	1.129493
4.28	1.030521
4.32	0.949062
4.36	0.884450
4.40	0.842312
4.44	0.847889
4.48	0.887559
4.52	0.918593
4.56	0.944237
4.60	0.991469
4.64	1.045746
4.68	1.089604
4.72	1.144632
4.76	1.218012
4.80	1.283723
4.84	1.337298
4.88	1.395233
4.92	1.453780
4.96	1.501434
5.00	1.536591
5.04	1.553427
5.08	1.551403
5.12	1.543259
5.16	1.523162
5.20	1.468603
5.24	1.385603
5.28	1.302980
5.32	1.231970
5.36	1.172023
5.40	1.130045
5.44	1.109142
5.48	1.104841
5.52	1.113778
5.56	1.127468
5.60	1.135276
5.64	1.142424
5.68	1.161958
5.72	1.192059
5.76	1.220154
5.80	1.238866
5.84	1.250288
5.88	1.265821
5.92	1.294761
5.96	1.326220
6.00	1.343738
6.04	1.357312
6.08	1.387903
6.12	1.427898
6.16	1.455415
6.20	1.471621
6.24	1.486611
6.28	1.495557
6.32	1.500079
6.36	1.515157
6.40	1.535331
6.44	1.539763
6.48	1.533511
6.52	1.535645
6.56	1.540883
6.60	1.535082
6.64	1.523185
6.68	1.515972
6.72	1.515661
6.76	1.517596
6.80	1.510855
6.84	1.496123
6.88	1.496323
6.92	1.517697
6.96	1.533786
7.00	1.538119
7.04	1.555763
7.08	1.588581
7.12	1.617205
7.16	1.644895
7.20	1.676615
7.24	1.695508
7.28	1.703473
7.32	1.724471
7.36	1.753326
7.40	1.767174
7.44	1.771551
7.48	1.778611
7.52	1.778428
7.56	1.768071
7.60	1.761059
7.64	1.757175
7.68	1.747291
7.72	1.736256
7.76	1.729350
7.80	1.721166
7.84	1.712183
7.88	1.708816
7.92	1.709941
7.96	1.714775
8.00	1.728496
8.04	1.747961
8.08	1.762678
8.12	1.773526
8.16	1.791877
8.20	1.820734
8.24	1.848958
8.28	1.866332
8.32	1.879408
8.36	1.901485
8.40	1.928306
8.44	1.947367
8.48	1.966239
8.52	1.994643
8.56	2.014753
8.60	2.015381
8.64	2.022897
8.68	2.051691
8.72	2.074594
8.76	2.079108
8.80	2.087873
8.84	2.104136
8.88	2.107763
8.92	2.104391
8.96	2.113662
9.00	2.127744
9.04	2.131135
9.08	2.131346
9.12	2.138883
9.16	2.148083
9.20	2.152434
9.24	2.154982
9.28	2.159652
9.32	2.166563
9.36	2.175726
9.40	2.186505
9.44	2.193907
9.48	2.197281
9.52	2.210588
9.56	2.240380
9.60	2.262573
9.64	2.259782
9.68	2.258850
9.72	2.281459
9.76	2.299392
9.80	2.291257
9.84	2.284739
9.88	2.299035
9.92	2.312496
9.96	2.312666
10.00	2.314008