File: data-release/xrd_measurements/Fe2O3/F_of_Q_real.csv
,Q,F,dF
0,1.01,0.81674,1e-7
3,1.04,0.913836,1e-7
6,1.07,0.940976,1e-7
9,1.1,0.911266,0.0001
12,1.13,0.837329,0.0001
15,1.16,0.731065,0.0001
18,1.19,0.603451,0.0001
21,1.22,0.464371,0.0001
24,1.25,0.322494,0.0001
27,1.28,0.185192,0.0001
30,1.31,0.0584876,0.0001
33,1.34,-0.052943,0.0001
36,1.37,-0.145746,0.0001
39,1.4,-0.217824,0.0001
42,1.43,-0.268249,0.0001
45,1.46,-0.297142,0.0001
48,1.49,-0.305543,0.0001
51,1.52,-0.295262,0.0001
54,1.55,-0.268722,0.0001
57,1.58,-0.228801,0.0001
60,1.61,-0.178672,0.0001
63,1.64,-0.121653,0.0001
66,1.67,-0.0610623,0.0001
69,1.7,-9.39217e-05,0.0001
72,1.73,0.0582972,0.0001
75,1.76,0.111487,0.0001
78,1.79,0.157256,0.0001
81,1.82,0.19384,0.0001
84,1.85,0.219966,0.0001
87,1.88,0.234859,0.0001
90,1.91,0.238237,0.0001
93,1.94,0.230288,0.0001
96,1.97,0.211629,0.0001
99,2,0.183254,0.0001
102,2.03,0.146474,0.0001
105,2.06,0.10285,0.0001
108,2.09,0.0541176,0.0001
111,2.12,0.00211649,0.0001
114,2.15,-0.0512824,0.0001
117,2.18,-0.104244,0.0001
120,2.21,-0.155033,0.0001
123,2.24,-0.202064,0.0001
126,2.27,-0.243951,0.0001
129,2.3,-0.27954,0.0001
132,2.33,-0.307933,0.0001
135,2.36,-0.328504,0.0001
138,2.39,-0.340901,0.0001
141,2.42,-0.345039,0.0001
144,2.45,-0.341086,0.0001
147,2.48,-0.32944,0.0001
150,2.51,-0.310699,0.0001
153,2.54,-0.285629,0.0001
156,2.57,-0.255122,0.0001
159,2.6,-0.220163,0.0001
162,2.63,-0.181788,0.0001
165,2.66,-0.141044,0.0001
168,2.69,-0.0989592,0.0001
171,2.72,-0.0565055,0.0001
174,2.75,-0.0145756,0.0001
177,2.78,0.0260402,0.0001
180,2.81,0.0646706,0.0001
183,2.84,0.100773,0.0001
186,2.87,0.133939,0.0001
189,2.9,0.163893,0.0001
192,2.93,0.190486,0.0001
195,2.96,0.213687,0.0001
198,2.99,0.233569,0.0001
201,3.02,0.25029,0.0001
204,3.05,0.264081,0.0001
207,3.08,0.275217,0.0001
210,3.11,0.284007,0.0001
213,3.14,0.29077,0.0001
216,3.17,0.295818,0.0001
219,3.2,0.299444,0.0001
222,3.23,0.301905,0.0001
225,3.26,0.303415,0.0001
228,3.29,0.304139,0.0001
231,3.32,0.304186,0.0001
234,3.35,0.303613,0.0001
237,3.38,0.302423,0.0001
240,3.41,0.300575,0.0001
243,3.44,0.297989,0.0001
246,3.47,0.294552,0.0001
249,3.5,0.290133,0.0001
252,3.53,0.284594,0.0001
255,3.56,0.277795,0.0001
258,3.59,0.269611,0.0001
261,3.62,0.259938,0.0001
264,3.65,0.248703,0.0001
267,3.68,0.23587,0.0001
270,3.71,0.221444,0.0001
273,3.74,0.205476,0.0001
276,3.77,0.188061,0.0001
279,3.8,0.169338,0.0001
282,3.83,0.149487,0.0001
285,3.86,0.128725,0.0001
288,3.89,0.107297,0.0001
291,3.92,0.085469,0.0001
294,3.95,0.0635219,0.0001
297,3.98,0.0417407,0.0001
300,4.01,0.0204065,0.0001
303,4.04,-0.00021195,0.0001
306,4.07,-0.0198661,0.0001
309,4.1,-0.0383341,0.0001
312,4.13,-0.0554269,0.0001
315,4.16,-0.0709917,0.0001
318,4.19,-0.0849153,0.0001
321,4.22,-0.0971249,0.0001
324,4.25,-0.107588,0.0001
327,4.28,-0.11631,0.0001
330,4.31,-0.123333,0.0001
333,4.34,-0.12873,0.0001
336,4.37,-0.132599,0.0001
339,4.4,-0.135059,0.0001
342,4.43,-0.136246,0.0001
345,4.46,-0.136301,0.0001
348,4.49,-0.135372,0.0001
351,4.52,-0.133602,0.0001
354,4.55,-0.131126,0.0001
357,4.58,-0.128069,0.0001
360,4.61,-0.124541,0.0001
363,4.64,-0.120637,0.0001
366,4.67,-0.116431,0.0001
369,4.7,-0.111983,0.0001
372,4.73,-0.107334,0.0001
375,4.76,-0.102513,0.0001
378,4.79,-0.0975328,0.0001
381,4.82,-0.0924003,0.0001
384,4.85,-0.0871151,0.0001
387,4.88,-0.0816743,0.0001
390,4.91,-0.0760767,0.0001
393,4.94,-0.070325,0.0001
396,4.97,-0.0644293,0.0001
399,5,-0.0584093,0.0001
402,5.03,-0.0522956,0.0001
405,5.06,-0.0461309,0.0001
408,5.09,-0.0399699,0.0001
411,5.12,-0.0338787,0.0001
414,5.15,-0.0279332,0.0001
417,5.18,-0.022217,0.0001
420,5.21,-0.0168187,0.0001
423,5.24,-0.0118284,0.0001
426,5.27,-0.00733464,0.0001
429,5.3,-0.0034206,0.0001
432,5.33,-0.000160379,0.0001
435,5.36,0.00238426,0.0001
438,5.39,0.00416689,0.0001
441,5.42,0.00515897,0.0001
444,5.45,0.00535166,0.0001
447,5.48,0.00475695,0.0001
450,5.51,0.00340806,0.0001
453,5.54,0.00135888,0.0001
456,5.57,-0.00131724,0.0001
459,5.6,-0.00452959,0.0001
462,5.63,-0.00817278,0.0001
465,5.66,-0.0121301,0.0001
468,5.69,-0.0162774,0.0001
471,5.72,-0.020487,0.0001
474,5.75,-0.024632,0.0001
477,5.78,-0.0285905,0.0001
480,5.81,-0.0322498,0.0001
483,5.84,-0.03551,0.0001
486,5.87,-0.0382872,0.0001
489,5.9,-0.040516,0.0001
492,5.93,-0.0421518,0.0001
495,5.96,-0.0431718,0.0001
498,5.99,-0.0435752,0.0001
501,6.02,-0.043383,0.0001
504,6.05,-0.0426365,0.0001
507,6.08,-0.0413956,0.0001
510,6.11,-0.0397361,0.0001
513,6.14,-0.0377465,0.0001
516,6.17,-0.0355242,0.0001
519,6.2,-0.0331723,0.0001
522,6.23,-0.030795,0.0001
525,6.26,-0.0284939,0.0001
528,6.29,-0.0263646,0.0001
531,6.32,-0.0244927,0.0001
534,6.35,-0.0229512,0.0001
537,6.38,-0.0217979,0.0001
540,6.41,-0.0210738,0.0001
543,6.44,-0.0208019,0.0001
546,6.47,-0.0209867,0.0001
549,6.5,-0.0216144,0.0001
552,6.53,-0.0226544,0.0001
555,6.56,-0.0240602,0.0001
558,6.59,-0.0257722,0.0001
561,6.62,-0.0277199,0.0001
564,6.65,-0.029825,0.0001
567,6.68,-0.0320044,0.0001
570,6.71,-0.0341738,0.0001
573,6.74,-0.0362506,0.0001
576,6.77,-0.0381568,0.0001
579,6.8,-0.0398224,0.0001
582,6.83,-0.0411869,0.0001
585,6.86,-0.0422021,0.0001
588,6.89,-0.042833,0.0001
591,6.92,-0.0430586,0.0001
594,6.95,-0.0428725,0.0001
597,6.98,-0.0422823,0.0001
600,7.01,-0.0413092,0.0001
603,7.04,-0.0399862,0.0001
606,7.07,-0.0383565,0.0001
609,7.1,-0.0364718,0.0001
612,7.13,-0.0343894,0.0001
615,7.16,-0.0321704,0.0001
618,7.19,-0.0298765,0.0001
621,7.22,-0.0275684,0.0001
624,7.25,-0.0253028,0.0001
627,7.28,-0.0231307,0.0001
630,7.31,-0.0210958,0.0001
633,7.34,-0.019233,0.0001
636,7.37,-0.0175676,0.0001
639,7.4,-0.0161148,0.0001
642,7.43,-0.0148795,0.0001
645,7.46,-0.0138569,0.0001
648,7.49,-0.0130332,0.0001
651,7.52,-0.0123869,0.0001
654,7.55,-0.0118899,0.0001
657,7.58,-0.0115094,0.0001
660,7.61,-0.0112093,0.0001
663,7.64,-0.0109526,0.0001
666,7.67,-0.0107028,0.0001
669,7.7,-0.0104256,0.0001
672,7.73,-0.0100905,0.0001
675,7.76,-0.00967235,0.0001
678,7.79,-0.00915197,0.0001
681,7.82,-0.00851715,0.0001
684,7.85,-0.00776294,0.0001
687,7.88,-0.00689171,0.0001
690,7.91,-0.00591289,0.0001
693,7.94,-0.00484235,0.0001
696,7.97,-0.00370155,0.0001
699,8,-0.00251647,0.0001
702,8.03,-0.00131634,0.0001
705,8.06,-0.000132248,0.0001
708,8.09,0.00100421,0.0001
711,8.12,0.00206239,0.0001
714,8.15,0.00301388,0.0001
717,8.18,0.00383373,0.0001
720,8.21,0.00450139,0.0001
723,8.24,0.00500155,0.0001
726,8.27,0.00532465,0.0001
729,8.3,0.00546713,0.0001
732,8.33,0.00543143,0.0001
735,8.36,0.00522574,0.0001
738,8.39,0.00486344,0.0001
741,8.42,0.00436237,0.0001
744,8.45,0.00374394,0.0001
747,8.48,0.00303206,0.0001
750,8.51,0.00225204,0.0001
753,8.54,0.00142937,0.0001
756,8.57,0.000588645,0.0001
759,8.6,-0.000247525,0.0001
762,8.63,-0.00105946,0.0001
765,8.66,-0.00183116,0.0001
768,8.69,-0.00255096,0.0001
771,8.72,-0.00321179,0.0001
774,8.75,-0.00381141,0.0001
777,8.78,-0.00435226,0.0001
780,8.81,-0.00484113,0.0001
783,8.84,-0.00528866,0.0001
786,8.87,-0.0057086,0.0001
789,8.9,-0.00611691,0.0001
792,8.93,-0.00653084,0.0001
795,8.96,-0.00696786,0.0001
798,8.99,-0.00744459,0.0001
799,9,-0.00761495,0.0001