File: data-release/xrd_measurements/Fe2O3/T_of_r.csv
,r,T
0,0.04361,-0.0577121
2,0.1063,-0.146479
4,0.1457,-0.206223
6,0.1801,-0.257284
8,0.1873,-0.273551
10,0.2145,-0.32499
12,0.2289,-0.358163
14,0.2505,-0.443257
16,0.2622,-0.478566
18,0.2788,-0.488406
20,0.2916,-0.52853
22,0.3277,-0.649483
24,0.3515,-0.720132
26,0.4342,-0.876861
28,0.4591,-0.873928
30,0.4813,-0.840743
32,0.5063,-0.783759
34,0.5296,-0.699249
36,0.5529,-0.596634
38,0.5768,-0.484413
40,0.6012,-0.371387
42,0.6145,-0.320206
44,0.6267,-0.272327
46,0.6395,-0.22387
48,0.6755,-0.13635
50,0.721,-0.183149
52,0.7493,-0.287333
54,0.7671,-0.431888
56,0.7809,-0.514758
58,0.792,-0.602201
60,0.8092,-0.698822
62,0.8175,-0.676993
64,0.8342,-1.05838
66,0.8419,-0.908494
68,0.8564,-1.16882
70,0.8791,-1.27674
72,0.8891,-1.36463
74,0.903,-1.45905
76,0.9196,-1.5473
78,0.9268,-1.61003
80,0.9451,-1.6925
82,0.9612,-1.64741
84,0.9745,-1.71902
86,1.012,-1.89261
88,1.087,-1.91085
90,1.139,-1.95103
92,1.202,-2.09718
94,1.258,-2.23246
96,1.3,-2.33726
98,1.352,-2.48332
100,1.411,-2.55746
102,1.476,-2.73734
104,1.56,-2.94047
106,1.619,-3.04754
108,1.676,-3.04043
110,1.713,-3.11528
112,1.732,-3.06053
114,1.744,-2.9899
116,1.771,-2.90084
118,1.788,-2.83824
120,1.807,-2.70035
122,1.823,-2.62471
124,1.838,-2.56901
126,1.857,-2.24144
128,1.885,-2.31147
130,1.929,-2.18393
132,1.981,-2.4332
134,2.015,-2.36284
136,2.034,-2.47155
138,2.081,-2.75604
140,2.131,-2.98504
142,2.18,-2.95111
144,2.22,-2.85478
146,2.253,-2.90177
148,2.281,-2.79014
150,2.307,-2.69006
152,2.33,-2.41746
154,2.363,-2.32986
156,2.409,-2.29593
158,2.464,-2.41833
160,2.509,-2.6148
162,2.537,-2.73767
164,2.563,-2.96395
166,2.598,-3.05567
168,2.605,-3.30242
170,2.633,-3.30461
172,2.655,-3.48668
174,2.672,-3.64026
176,2.694,-3.81866
178,2.721,-4.02077
180,2.748,-4.39295
182,2.788,-4.58807
184,2.845,-4.82994
186,2.905,-4.99944
188,2.967,-5.12856
190,3.027,-5.23559
192,3.086,-5.25
194,3.147,-5.45734
196,3.209,-5.45299
198,3.269,-5.54658
200,3.363,-5.77248
202,3.431,-5.77461
204,3.49,-5.6812
206,3.536,-5.53455
208,3.574,-5.37708
210,3.607,-5.20382
212,3.639,-5.04417
214,3.673,-4.88674
216,3.716,-4.75036
218,3.796,-4.65867
220,3.856,-4.75764
222,3.896,-4.95288
224,3.962,-4.95058
226,4.022,-4.88516
228,4.08,-4.82146
230,4.161,-4.7488
232,4.219,-4.89393
234,4.278,-5.10519
236,4.325,-5.24225
238,4.4,-5.54238
240,4.461,-5.65532
242,4.522,-5.75327
244,4.582,-5.86669
246,4.643,-6.03636
248,4.705,-6.20741
250,4.767,-6.49443
252,4.812,-6.53345
254,4.875,-6.55244
256,4.942,-6.58262
258,5.011,-6.50216
260,5.071,-6.61592
262,5.132,-6.77076
264,5.193,-6.9327
266,5.247,-7.055
268,5.348,-7.50761
270,5.407,-7.70248
272,5.47,-7.94691
274,5.533,-8.12543
276,5.583,-8.36831
278,5.65,-8.42053
280,5.716,-8.33635
282,5.776,-8.42949
284,5.838,-8.72135
286,5.882,-8.75697
288,5.945,-8.71815
290,6.001,-8.65179
292,6.061,-8.57281
294,6.118,-8.52069
296,6.194,-8.36606
298,6.242,-8.49709
300,6.298,-8.78366
302,6.359,-8.9881
304,6.42,-9.22692
306,6.48,-9.44742
308,6.541,-9.66552
310,6.602,-9.88924
312,6.656,-9.85898
314,6.734,-10.3521
316,6.844,-10.653
318,6.904,-10.7085
320,6.968,-10.7687
322,7.019,-10.6807