File: data-release/xrd_measurements/Li3PS4_gamma/T_of_r.csv
,r,T
0,0.0416667,-0.044703
1,0.125,-0.044703
2,0.208333,-0.044703
3,0.291667,-0.044703
4,0.375,-0.044703
5,0.458333,-0.044703
6,0.541667,-0.044703
7,0.625,-0.044703
8,0.708333,-0.044703
9,0.791667,-0.044703
10,0.875,-0.044703
11,0.958333,-0.044703
12,1.04167,-0.044703
13,1.125,-0.044703
14,1.20833,-0.044703
15,1.29167,-0.044703
16,1.375,-0.044703
17,1.45833,-0.044703
18,1.54167,-0.044703
19,1.625,-0.044703
20,1.70833,-0.044703
21,1.79167,-0.044703
22,1.875,-0.0432809
23,1.95833,-0.00118463
24,2.04167,0.068959
25,2.125,0.0220474
26,2.20833,-0.0150683
27,2.29167,-0.00186064
28,2.375,0.01722
29,2.45833,0.0233368
30,2.54167,0.0130145
31,2.625,0.00222134
32,2.70833,-0.00734099
33,2.79167,-0.0170233
34,2.875,-0.0195263
35,2.95833,-0.0237269
36,3.04167,-0.023162
37,3.125,-0.0197847
38,3.20833,-0.00919563
39,3.29167,0.00458785
40,3.375,0.015876
41,3.45833,0.0180288
42,3.54167,0.0118653
43,3.625,0.00572498
44,3.70833,0.00521559
45,3.79167,0.00244922
46,3.875,0.00293273
47,3.95833,0.00357732
48,4.04167,0.00124236
49,4.125,0.00284726
50,4.20833,0.00231413
51,4.29167,0.00179853
52,4.375,0.000740604
53,4.45833,-0.000594698
54,4.54167,-5.15636e-05
55,4.625,-0.00175727
56,4.70833,-0.00149157
57,4.79167,-0.00315798
58,4.875,-0.00402514
59,4.95833,-0.00347266
60,5.04167,-0.00329763
61,5.125,-0.00124275
62,5.20833,-0.0017091
63,5.29167,-1.70676e-05
64,5.375,0.00151753
65,5.45833,0.00106029
66,5.54167,0.00067882
67,5.625,-0.000114062
68,5.70833,4.81005e-05
69,5.79167,0.00150947
70,5.875,0.00118042
71,5.95833,-0.000489489
72,6.04167,0.000229957
73,6.125,-0.000825728
74,6.20833,-0.000908131
75,6.29167,-0.000887874
76,6.375,-0.000356026
77,6.45833,-0.000162598
78,6.54167,0.000195227
79,6.625,0.000586388
80,6.70833,0.000960722
81,6.79167,0.000559047
82,6.875,0.00070785
83,6.95833,0.00076781
84,7.04167,0.000240306
85,7.125,-4.95466e-05
86,7.20833,0.00118344
87,7.29167,-7.01257e-05
88,7.375,0.000691163
89,7.45833,0.000701556
90,7.54167,0.000863068
91,7.625,0.000843251
92,7.70833,-4.3885e-05
93,7.79167,0.000535368
94,7.875,-0.00047064
95,7.95833,-0.00059491
96,8.04167,0.00025896
97,8.125,-9.19336e-05
98,8.20833,-0.000830397
99,8.29167,-0.000600152
100,8.375,-0.000573209
101,8.45833,-0.00103579
102,8.54167,-0.000497104
103,8.625,-0.00032559
104,8.70833,-0.000794132
105,8.79167,-0.000184272
106,8.875,0.000435023
107,8.95833,0.000430106
108,9.04167,-0.000182999
109,9.125,-0.000131278
110,9.20833,0.000399779
111,9.29167,-0.000439252
112,9.375,-5.99602e-05
113,9.45833,0.000900207
114,9.54167,0.0006822
115,9.625,0.000473164
116,9.70833,0.000254347
117,9.79167,0.000298969
118,9.875,1.20251e-05
119,9.95833,-0.000341734
120,10.0417,-0.000237218
121,10.125,-0.000171184
122,10.2083,-0.000171092
123,10.2917,-0.000298549
124,10.375,-0.000278372
125,10.4583,-0.000572141
126,10.5417,-0.000207022
127,10.625,-0.000142255
128,10.7083,3.90347e-05
129,10.7917,-8.75151e-05
130,10.875,0.000250645
131,10.9583,-0.000188687
132,11.0417,-0.000506924
133,11.125,0.000101869
134,11.2083,2.94057e-05
135,11.2917,0.00054016
136,11.375,-0.000121565
137,11.4583,-0.000531005
138,11.5417,0.000223542
139,11.625,-0.000164635
140,11.7083,0.00061726
141,11.7917,5.39476e-05
142,11.875,0.000365474
143,11.9583,-0.000120356
144,12.0417,4.9075e-05
145,12.125,-0.000523765
146,12.2083,0.000664511
147,12.2917,5.95847e-05
148,12.375,-0.000237369
149,12.4583,-0.000141642
150,12.5417,-2.67235e-05
151,12.625,0.000556222
152,12.7083,-7.35231e-05
153,12.7917,-0.000253584
154,12.875,0.000476347
155,12.9583,0.000133354
156,13.0417,0.000156586
157,13.125,-5.96651e-05
158,13.2083,-2.74566e-05
159,13.2917,3.79082e-06
160,13.375,0.000238388
161,13.4583,-0.000245259
162,13.5417,4.21907e-05
163,13.625,0.000243565
164,13.7083,-0.000394904
165,13.7917,-0.000101774
166,13.875,-0.000390588
167,13.9583,4.61917e-05
168,14.0417,5.82838e-05
169,14.125,-0.000262478
170,14.2083,0.00026829
171,14.2917,-0.000361355
172,14.375,-0.000133132
173,14.4583,-0.000105403
174,14.5417,3.19224e-05
175,14.625,5.55435e-05
176,14.7083,0.000331321
177,14.7917,-5.36436e-07
178,14.875,0.00025812
179,14.9583,-0.000300887
180,15.0417,0.00038454
181,15.125,9.30002e-05
182,15.2083,-0.000182351
183,15.2917,-3.58536e-05
184,15.375,-0.000371321
185,15.4583,-0.000225186
186,15.5417,-0.000267597
187,15.625,0.000288147
188,15.7083,0.000114234
189,15.7917,0.000384831
190,15.875,-9.96578e-05
191,15.9583,0.00016651
192,16.0417,0.000310311
193,16.125,0.000161897
194,16.2083,0.000184798
195,16.2917,-0.000567697
196,16.375,-0.000148794
197,16.4583,0.000102276
198,16.5417,-0.000115763
199,16.625,5.7953e-05
200,16.7083,-2.95733e-05
201,16.7917,-0.000256816
202,16.875,-2.47852e-05
203,16.9583,0.000209474
204,17.0417,0.000229452
205,17.125,4.31295e-05
206,17.2083,-0.000417298
207,17.2917,0.000213198
208,17.375,-0.000122221
209,17.4583,-0.000362783
210,17.5417,-9.61621e-05
211,17.625,0.000149272
212,17.7083,-6.31073e-05
213,17.7917,0.000142397
214,17.875,0.000366359
215,17.9583,7.1659e-05
216,18.0417,-3.27334e-05
217,18.125,0.000100112
218,18.2083,0.000121199
219,18.2917,-0.000182183
220,18.375,-0.000214204
221,18.4583,0.000107359
222,18.5417,3.1538e-05
223,18.625,5.24143e-05
224,18.7083,-2.47655e-06
225,18.7917,-0.000288542
226,18.875,9.76627e-05
227,18.9583,0.000217655
228,19.0417,-0.00028669
229,19.125,0.000220207
230,19.2083,-2.18598e-06
231,19.2917,-0.000175578
232,19.375,1.43184e-05
233,19.4583,-5.4189e-05
234,19.5417,0.000287597
235,19.625,0.000257995
236,19.7083,0.000344674
237,19.7917,-0.000339999
238,19.875,-0.000288871
239,19.9583,0.000233229
240,20.0417,-6.7633e-05
241,20.125,-0.000105566
242,20.2083,0.000113845
243,20.2917,-4.76087e-05
244,20.375,-7.44887e-05
245,20.4583,4.20253e-05
246,20.5417,-9.55215e-05
247,20.625,-0.000337056
248,20.7083,-7.81525e-05
249,20.7917,5.84179e-05
250,20.875,0.000123009
251,20.9583,6.20478e-06
252,21.0417,-1.67234e-05
253,21.125,-0.000247751
254,21.2083,0.000215683
255,21.2917,-2.22912e-05
256,21.375,0.000383695
257,21.4583,-4.10329e-05
258,21.5417,1.53331e-06
259,21.625,-7.59639e-06
260,21.7083,-0.000108917
261,21.7917,-9.75581e-05
262,21.875,0.000164083
263,21.9583,-0.000172111
264,22.0417,2.53377e-05
265,22.125,-0.000243994
266,22.2083,5.76222e-05
267,22.2917,3.26913e-05
268,22.375,8.60176e-05
269,22.4583,0.00011106
270,22.5417,4.76892e-05
271,22.625,-5.53155e-06
272,22.7083,1.84266e-05
273,22.7917,-5.28792e-05
274,22.875,4.61246e-05
275,22.9583,-9.2453e-05
276,23.0417,7.41176e-06
277,23.125,9.65899e-05
278,23.2083,0.000146809
279,23.2917,-0.000102085
280,23.375,-9.16166e-05
281,23.4583,-4.92851e-05
282,23.5417,-0.000501887
283,23.625,0.000127189
284,23.7083,1.9714e-06
285,23.7917,-1.43676e-05
286,23.875,0.000174941
287,23.9583,0.000221101
288,24.0417,-6.76312e-05
289,24.125,0.000300807
290,24.2083,-9.5441e-05
291,24.2917,-5.8552e-05
292,24.375,-0.000100917
293,24.4583,-5.02525e-05
294,24.5417,0.000142321
295,24.625,0.000153519
296,24.7083,0.000117274
297,24.7917,-0.000181864
298,24.875,-5.56016e-05
299,24.9583,-2.01074e-05