File: data-release/xrd_measurements/GeO2/I_Q
 IOP Conf. Series 107(1990)193
 Fig 8
 Q, i(Q), E(Q)
  0.400000E-01 -0.404879E+00  0.000000E+00
  0.280000E+00 -0.405327E+00  0.757398E-03
  0.520000E+00 -0.387066E+00  0.676990E-03
  0.760000E+00 -0.355431E+00  0.980540E-03
  0.100000E+01 -0.299441E+00  0.133342E-02
  0.124000E+01 -0.130975E+00  0.686019E-03
  0.148000E+01  0.133459E+00  0.105916E-02
  0.172000E+01  0.220808E-01  0.609623E-03
  0.196000E+01 -0.109213E+00  0.550168E-03
  0.220000E+01 -0.147818E+00  0.549922E-03
  0.244000E+01 -0.135613E+00  0.593885E-03
  0.268000E+01 -0.121105E+00  0.631158E-03
  0.292000E+01 -0.150460E+00  0.645244E-03
  0.316000E+01 -0.158539E+00  0.563650E-03
  0.340000E+01 -0.141025E+00  0.592995E-03
  0.364000E+01 -0.996037E-01  0.641793E-03
  0.388000E+01 -0.304680E-01  0.716814E-03
  0.412000E+01  0.744939E-01  0.818311E-03
  0.436000E+01  0.169821E+00  0.917328E-03
  0.460000E+01  0.203455E+00  0.983219E-03
  0.484000E+01  0.195968E+00  0.101690E-02
  0.508000E+01  0.116729E+00  0.996989E-03
  0.532000E+01 -0.316073E-01  0.908575E-03
  0.556000E+01 -0.107705E+00  0.881935E-03
  0.580000E+01 -0.119285E+00  0.913482E-03
  0.604000E+01 -0.109274E+00  0.960372E-03
  0.628000E+01 -0.103356E+00  0.995502E-03
  0.652000E+01 -0.942339E-01  0.104669E-02
  0.675999E+01 -0.680575E-01  0.110030E-02
  0.699999E+01 -0.185475E-01  0.118414E-02
  0.723999E+01  0.368731E-01  0.128458E-02
  0.747999E+01  0.660879E-01  0.134627E-02
  0.771999E+01  0.569126E-01  0.135988E-02
  0.795999E+01  0.396249E-01  0.137515E-02
  0.819999E+01  0.359730E-01  0.139496E-02
  0.843999E+01  0.419106E-01  0.142643E-02
  0.867999E+01  0.390620E-01  0.144970E-02
  0.891999E+01  0.224107E-01  0.145986E-02
  0.915999E+01 -0.744822E-02  0.144785E-02
  0.939999E+01 -0.382274E-01  0.142528E-02
  0.963999E+01 -0.588873E-01  0.142425E-02
  0.987999E+01 -0.625642E-01  0.144192E-02
  0.101200E+02 -0.533717E-01  0.147933E-02
  0.103600E+02 -0.440886E-01  0.150867E-02
  0.106000E+02 -0.317008E-01  0.155117E-02
  0.108400E+02 -0.165404E-01  0.160493E-02
  0.110800E+02  0.642100E-02  0.165161E-02
  0.113200E+02  0.365061E-01  0.171095E-02
  0.115600E+02  0.618700E-01  0.177986E-02
  0.118000E+02  0.621936E-01  0.181686E-02
  0.120400E+02  0.477344E-01  0.180292E-02
  0.122800E+02  0.204792E-01  0.180763E-02
  0.125200E+02 -0.372933E-02  0.177251E-02
  0.127600E+02 -0.221402E-01  0.177747E-02
  0.130000E+02 -0.380442E-01  0.176796E-02
  0.132400E+02 -0.436642E-01  0.179281E-02
  0.134800E+02 -0.435167E-01  0.182127E-02
  0.137200E+02 -0.350867E-01  0.184799E-02
  0.139600E+02 -0.206521E-01  0.189535E-02
  0.142000E+02 -0.553000E-02  0.192213E-02
  0.144400E+02  0.358399E-02  0.200021E-02
  0.146800E+02  0.112375E-01  0.203681E-02
  0.149200E+02  0.135338E-01  0.205966E-02
  0.151600E+02  0.198666E-01  0.209654E-02
  0.154000E+02  0.247476E-01  0.215878E-02
  0.156400E+02  0.277586E-01  0.219133E-02
  0.158800E+02  0.233555E-01  0.220955E-02
  0.161200E+02  0.123300E-01  0.221302E-02
  0.163600E+02 -0.190151E-03  0.113482E-02
  0.166000E+02 -0.160834E-01  0.112592E-02
  0.168400E+02 -0.256009E-01  0.112377E-02
  0.170800E+02 -0.302891E-01  0.113151E-02
  0.173200E+02 -0.278463E-01  0.114061E-02
  0.175600E+02 -0.195951E-01  0.115874E-02
  0.178000E+02 -0.774246E-02  0.118081E-02
  0.180400E+02  0.774339E-02  0.121211E-02
  0.182800E+02  0.191431E-01  0.123613E-02
  0.185200E+02  0.258146E-01  0.125774E-02
  0.187600E+02  0.277194E-01  0.127065E-02
  0.190001E+02  0.239968E-01  0.127630E-02
  0.192401E+02  0.178754E-01  0.127950E-02
  0.194801E+02  0.113747E-01  0.127977E-02
  0.197201E+02  0.548417E-02  0.128176E-02
  0.199601E+02  0.655343E-04  0.128840E-02
  0.202001E+02 -0.730318E-02  0.129387E-02
  0.204401E+02 -0.144452E-01  0.129696E-02
  0.206801E+02 -0.173986E-01  0.130091E-02
  0.209201E+02 -0.169159E-01  0.131948E-02
  0.211601E+02 -0.133672E-01  0.133100E-02
  0.214001E+02 -0.680896E-02  0.135535E-02
  0.216401E+02  0.160955E-02  0.138451E-02
  0.218801E+02  0.102742E-01  0.141005E-02
  0.221201E+02  0.173938E-01  0.143741E-02
  0.223601E+02  0.213983E-01  0.144860E-02
  0.226001E+02  0.216881E-01  0.146349E-02
  0.228401E+02  0.188803E-01  0.147768E-02
  0.230801E+02  0.132771E-01  0.147912E-02
  0.233202E+02  0.543274E-02  0.148023E-02
  0.235602E+02 -0.235219E-02  0.147925E-02
  0.238002E+02 -0.824129E-02  0.147998E-02
  0.240402E+02 -0.119019E-01  0.148713E-02
  0.242802E+02 -0.131183E-01  0.149357E-02
  0.245202E+02 -0.116992E-01  0.150375E-02
  0.247602E+02 -0.801900E-02  0.152176E-02
  0.250002E+02 -0.280066E-02  0.154523E-02
  0.252402E+02  0.312907E-02  0.155736E-02
  0.254802E+02  0.885654E-02  0.159165E-02
  0.257202E+02  0.132381E-01  0.159980E-02
  0.259602E+02  0.153262E-01  0.162897E-02
  0.262002E+02  0.152969E-01  0.163183E-02
  0.264402E+02  0.135167E-01  0.164411E-02
  0.266802E+02  0.989268E-02  0.164860E-02
  0.269202E+02  0.449686E-02  0.165332E-02
  0.271602E+02 -0.114465E-02  0.165843E-02
  0.274002E+02 -0.526477E-02  0.166684E-02
  0.276403E+02 -0.764625E-02  0.168326E-02
  0.278803E+02 -0.870173E-02  0.168544E-02
  0.281203E+02 -0.831897E-02  0.174997E-02
  0.283603E+02 -0.604517E-02  0.176289E-02
  0.286003E+02 -0.211466E-02  0.178317E-02
  0.288403E+02  0.237983E-02  0.181528E-02
  0.290803E+02  0.646845E-02  0.183184E-02
  0.293203E+02  0.966111E-02  0.185990E-02
  0.295603E+02  0.115562E-01  0.187592E-02
  0.298003E+02  0.118128E-01  0.189502E-02
  0.300403E+02  0.101294E-01  0.190142E-02
  0.302803E+02  0.675370E-02  0.190643E-02
  0.305203E+02  0.273979E-02  0.190837E-02
  0.307603E+02 -0.893570E-03  0.192235E-02
  0.310003E+02 -0.374078E-02  0.192544E-02
  0.312403E+02 -0.562889E-02  0.193411E-02
  0.314803E+02 -0.640158E-02  0.195104E-02
  0.317203E+02 -0.593079E-02  0.196164E-02
  0.319604E+02 -0.412223E-02  0.197353E-02
  0.322004E+02 -0.127856E-02  0.199602E-02
  0.324404E+02  0.202272E-02  0.201441E-02
  0.326804E+02  0.520447E-02  0.203228E-02
  0.329204E+02  0.772118E-02  0.204522E-02
  0.331604E+02  0.903784E-02  0.206379E-02
  0.334004E+02  0.882748E-02  0.208101E-02
  0.336404E+02  0.740542E-02  0.208797E-02
  0.338804E+02  0.521044E-02  0.209573E-02
  0.341204E+02  0.264698E-02  0.208592E-02
  0.343604E+02  0.371757E-04  0.210948E-02
  0.346004E+02 -0.230897E-02  0.210352E-02
  0.348404E+02 -0.409049E-02  0.211770E-02
  0.350804E+02 -0.502877E-02  0.212710E-02
  0.353204E+02 -0.484857E-02  0.215360E-02
  0.355604E+02 -0.343712E-02  0.216903E-02
  0.358004E+02 -0.124074E-02  0.218607E-02
  0.360404E+02  0.117399E-02  0.220366E-02
  0.362804E+02  0.327793E-02  0.221747E-02
  0.365205E+02  0.479488E-02  0.232343E-02
  0.367605E+02  0.555342E-02  0.234315E-02
  0.370005E+02  0.539111E-02  0.249231E-02
  0.372405E+02  0.435339E-02  0.251033E-02
  0.374805E+02  0.269870E-02  0.250780E-02
  0.377205E+02  0.695098E-03  0.251403E-02
  0.379605E+02 -0.137672E-02  0.252451E-02
  0.382005E+02 -0.319029E-02  0.254123E-02
  0.384405E+02 -0.440870E-02  0.256343E-02
  0.386805E+02 -0.470480E-02  0.256914E-02
  0.389205E+02 -0.404732E-02  0.257074E-02
  0.391605E+02 -0.274761E-02  0.260178E-02
  0.394005E+02 -0.113611E-02  0.262670E-02
  0.396405E+02  0.468859E-03  0.263584E-02
  0.398805E+02  0.186636E-02  0.266072E-02
  0.401205E+02  0.292122E-02  0.267887E-02
  0.403605E+02  0.349898E-02  0.269490E-02
  0.406005E+02  0.349096E-02  0.269819E-02
  0.408406E+02  0.295158E-02  0.272409E-02
  0.410806E+02  0.199889E-02  0.273431E-02
  0.413206E+02  0.751113E-03  0.273374E-02
  0.415606E+02 -0.662108E-03  0.275608E-02
  0.418006E+02 -0.203285E-02  0.274940E-02
  0.420406E+02 -0.312041E-02  0.277405E-02
  0.422806E+02 -0.368400E-02  0.280258E-02
  0.425206E+02 -0.350595E-02  0.279591E-02
  0.427606E+02 -0.267104E-02  0.280706E-02
  0.430006E+02 -0.147635E-02  0.283108E-02
  0.432406E+02 -0.223356E-03  0.283821E-02
  0.434806E+02  0.787670E-03  0.286674E-02
  0.437206E+02  0.137449E-02  0.289118E-02
  0.439606E+02  0.157173E-02  0.289124E-02
  0.442006E+02  0.143726E-02  0.291390E-02
  0.444406E+02  0.102896E-02  0.292506E-02
  0.446806E+02  0.407851E-03  0.292159E-02
  0.449206E+02 -0.334640E-03  0.293686E-02
  0.451607E+02 -0.109003E-02  0.296800E-02
  0.454007E+02 -0.174964E-02  0.297533E-02
  0.456407E+02 -0.220479E-02  0.298425E-02
  0.458807E+02 -0.236802E-02  0.299462E-02
  0.461207E+02 -0.224566E-02  0.301261E-02
  0.463607E+02 -0.186992E-02  0.301675E-02
  0.466007E+02 -0.127305E-02  0.304600E-02
  0.468407E+02 -0.487274E-03  0.307850E-02
  0.470807E+02  0.433656E-03  0.308630E-02
  0.473207E+02  0.135004E-02  0.308844E-02
  0.475607E+02  0.210071E-02  0.311106E-02
  0.478007E+02  0.252451E-02  0.312509E-02
  0.480407E+02  0.246027E-02  0.314938E-02
  0.482807E+02  0.178714E-02  0.318024E-02
  0.485207E+02  0.677661E-03  0.315928E-02
  0.487607E+02 -0.565851E-03  0.316854E-02
  0.490007E+02 -0.164049E-02  0.319394E-02
  0.492407E+02 -0.224335E-02  0.319563E-02
  0.494808E+02 -0.207152E-02  0.321373E-02
  0.497208E+02 -0.822111E-03  0.324186E-02
  0.499608E+02  0.180779E-02  0.460838E+04