File: data-release/xrd_measurements/GeO2/T_r
 IOP Conf. Series 107(1990)193
 Fig 9 Top right
 r, T(r)
  0.000000E+00 -0.249991E-01
  0.400000E-01  0.238569E+00
  0.800000E-01  0.171643E+00
  0.120000E+00 -0.172790E+00
  0.160000E+00 -0.462031E+00
  0.200000E+00 -0.447780E+00
  0.240000E+00 -0.235657E+00
  0.280000E+00 -0.758193E-01
  0.320000E+00 -0.272190E-01
  0.360000E+00  0.348276E-02
  0.400000E+00  0.300756E-01
  0.440000E+00 -0.302775E-02
  0.480000E+00 -0.771428E-01
  0.520000E+00 -0.126437E+00
  0.560000E+00 -0.134238E+00
  0.600000E+00 -0.117506E+00
  0.640000E+00 -0.893311E-01
  0.680000E+00 -0.612768E-01
  0.720000E+00 -0.288779E-01
  0.760000E+00  0.144118E-01
  0.800000E+00  0.323651E-01
  0.840000E+00 -0.650185E-02
  0.880000E+00 -0.563002E-01
  0.920000E+00 -0.633281E-01
  0.960000E+00 -0.512492E-01
  0.100000E+01 -0.532034E-01
  0.104000E+01 -0.450272E-01
  0.108000E+01 -0.750419E-02
  0.112000E+01  0.303336E-01
  0.116000E+01  0.397744E-01
  0.120000E+01  0.234483E-01
  0.124000E+01 -0.472799E-02
  0.128000E+01 -0.377672E-01
  0.132000E+01 -0.687678E-01
  0.136000E+01 -0.771187E-01
  0.140000E+01 -0.543574E-01
  0.144000E+01 -0.282367E-01
  0.148000E+01 -0.403705E-02
  0.152000E+01  0.426511E-01
  0.156000E+01  0.886863E-01
  0.160000E+01  0.248120E+00
  0.164000E+01  0.100302E+01
  0.168000E+01  0.260458E+01
  0.172000E+01  0.416576E+01
  0.176000E+01  0.428001E+01
  0.180000E+01  0.279959E+01
  0.184000E+01  0.106902E+01
  0.188000E+01  0.200888E+00
  0.192000E+01  0.640219E-01
  0.196000E+01  0.782986E-01
  0.200000E+01  0.497457E-01
  0.204000E+01  0.255791E-01
  0.208000E+01  0.624835E-02
  0.212000E+01 -0.103912E-01
  0.216000E+01 -0.359261E-02
  0.220000E+01  0.207542E-01
  0.224000E+01  0.468248E-01
  0.228000E+01  0.577102E-01
  0.232000E+01  0.356124E-01
  0.236000E+01 -0.103879E-02
  0.240000E+01 -0.188867E-01
  0.244000E+01 -0.238489E-01
  0.248000E+01 -0.247254E-01
  0.252000E+01  0.456220E-02
  0.256000E+01  0.755000E-01
  0.260000E+01  0.177677E+00
  0.264000E+01  0.336717E+00
  0.268000E+01  0.590436E+00
  0.272000E+01  0.912791E+00
  0.276000E+01  0.122512E+01
  0.280000E+01  0.145314E+01
  0.284000E+01  0.154178E+01
  0.288000E+01  0.147117E+01
  0.292000E+01  0.128933E+01
  0.296000E+01  0.109225E+01
  0.300000E+01  0.961474E+00
  0.304000E+01  0.932710E+00
  0.308000E+01  0.996790E+00
  0.312000E+01  0.110441E+01
  0.316000E+01  0.119028E+01
  0.320000E+01  0.121052E+01
  0.324000E+01  0.115483E+01
  0.328000E+01  0.104098E+01
  0.332000E+01  0.913824E+00
  0.336000E+01  0.823670E+00
  0.340000E+01  0.785957E+00
  0.344000E+01  0.780352E+00
  0.348000E+01  0.789110E+00
  0.352000E+01  0.809855E+00
  0.356000E+01  0.839041E+00
  0.360000E+01  0.870509E+00
  0.364000E+01  0.902674E+00
  0.368000E+01  0.933219E+00
  0.372000E+01  0.960023E+00
  0.376000E+01  0.989388E+00
  0.380000E+01  0.102522E+01
  0.384000E+01  0.105421E+01
  0.388000E+01  0.106093E+01
  0.392000E+01  0.105253E+01
  0.396000E+01  0.105214E+01
  0.400000E+01  0.107261E+01
  0.404000E+01  0.111057E+01
  0.408000E+01  0.116157E+01
  0.412000E+01  0.122497E+01
  0.416000E+01  0.129568E+01
  0.420000E+01  0.136799E+01
  0.424000E+01  0.144746E+01
  0.428000E+01  0.154312E+01
  0.432000E+01  0.164856E+01
  0.436000E+01  0.174338E+01
  0.440000E+01  0.180961E+01
  0.444000E+01  0.183588E+01
  0.448000E+01  0.181245E+01
  0.452000E+01  0.173614E+01
  0.456000E+01  0.162100E+01
  0.460000E+01  0.149661E+01
  0.464000E+01  0.139305E+01
  0.468000E+01  0.132818E+01
  0.472000E+01  0.130650E+01
  0.476000E+01  0.132193E+01
  0.480000E+01  0.135990E+01
  0.484000E+01  0.140518E+01
  0.488000E+01  0.145241E+01
  0.492000E+01  0.150448E+01
  0.496000E+01  0.156064E+01
  0.500000E+01  0.161297E+01
  0.504000E+01  0.165509E+01
  0.508000E+01  0.168884E+01
  0.512000E+01  0.172021E+01
  0.516000E+01  0.175145E+01
  0.520000E+01  0.178020E+01
  0.524000E+01  0.180518E+01
  0.528000E+01  0.182804E+01
  0.532000E+01  0.184923E+01
  0.536000E+01  0.186654E+01
  0.540000E+01  0.187788E+01
  0.544000E+01  0.188156E+01
  0.548000E+01  0.187437E+01
  0.552000E+01  0.185388E+01
  0.556000E+01  0.182363E+01
  0.560000E+01  0.179403E+01
  0.564000E+01  0.177525E+01
  0.568000E+01  0.176839E+01
  0.572000E+01  0.176550E+01
  0.576000E+01  0.175928E+01
  0.580000E+01  0.175088E+01
  0.584000E+01  0.174784E+01
  0.588000E+01  0.175661E+01
  0.592000E+01  0.177793E+01
  0.596000E+01  0.180703E+01
  0.600000E+01  0.183650E+01
  0.604000E+01  0.185979E+01
  0.608000E+01  0.187421E+01
  0.612000E+01  0.188214E+01
  0.616000E+01  0.188893E+01
  0.620000E+01  0.189871E+01
  0.624000E+01  0.191165E+01
  0.628000E+01  0.192477E+01
  0.632000E+01  0.193544E+01
  0.636000E+01  0.194364E+01
  0.640000E+01  0.195076E+01
  0.644000E+01  0.195807E+01
  0.648000E+01  0.196767E+01
  0.652000E+01  0.198237E+01
  0.656000E+01  0.200230E+01
  0.660000E+01  0.202309E+01
  0.664000E+01  0.203838E+01
  0.668000E+01  0.204373E+01
  0.672000E+01  0.204022E+01
  0.676000E+01  0.203499E+01
  0.680000E+01  0.203582E+01
  0.684000E+01  0.204484E+01
  0.688000E+01  0.205897E+01
  0.692000E+01  0.207406E+01
  0.696000E+01  0.208661E+01
  0.700000E+01  0.209448E+01
  0.704000E+01  0.209852E+01
  0.708000E+01  0.210200E+01
  0.712000E+01  0.210815E+01
  0.716000E+01  0.211902E+01
  0.720000E+01  0.213513E+01
  0.724000E+01  0.215485E+01
  0.728000E+01  0.217532E+01
  0.732000E+01  0.219510E+01
  0.736000E+01  0.221505E+01
  0.740000E+01  0.223657E+01
  0.744000E+01  0.225997E+01
  0.748000E+01  0.228525E+01
  0.752000E+01  0.231282E+01
  0.756000E+01  0.234265E+01
  0.760000E+01  0.237304E+01
  0.764000E+01  0.240098E+01
  0.768000E+01  0.242360E+01
  0.772000E+01  0.243947E+01
  0.776000E+01  0.244935E+01
  0.780000E+01  0.245570E+01
  0.784000E+01  0.246131E+01
  0.788000E+01  0.246783E+01
  0.792000E+01  0.247510E+01
  0.796000E+01  0.248207E+01
  0.800000E+01  0.248853E+01
  0.804000E+01  0.249496E+01
  0.808000E+01  0.250139E+01
  0.812000E+01  0.250786E+01
  0.816000E+01  0.251534E+01
  0.820000E+01  0.252460E+01
  0.824000E+01  0.253487E+01
  0.828000E+01  0.254480E+01
  0.832000E+01  0.255425E+01
  0.836000E+01  0.256425E+01
  0.840000E+01  0.257619E+01
  0.844000E+01  0.259119E+01
  0.848000E+01  0.260950E+01
  0.852000E+01  0.263011E+01
  0.856000E+01  0.265103E+01
  0.860000E+01  0.267049E+01
  0.864000E+01  0.268833E+01
  0.868000E+01  0.270579E+01
  0.872000E+01  0.272398E+01
  0.876000E+01  0.274299E+01
  0.880000E+01  0.276230E+01
  0.884000E+01  0.278155E+01
  0.888000E+01  0.280058E+01
  0.892000E+01  0.281875E+01
  0.896000E+01  0.283477E+01
  0.900000E+01  0.284771E+01
  0.904000E+01  0.285758E+01
  0.908000E+01  0.286485E+01
  0.912000E+01  0.287020E+01
  0.916000E+01  0.287513E+01
  0.920000E+01  0.288174E+01
  0.924000E+01  0.289150E+01
  0.928000E+01  0.290454E+01
  0.932000E+01  0.291987E+01
  0.936000E+01  0.293572E+01
  0.940000E+01  0.294986E+01
  0.944000E+01  0.296015E+01
  0.948000E+01  0.296554E+01
  0.952000E+01  0.296697E+01
  0.956000E+01  0.296715E+01
  0.960000E+01  0.296925E+01
  0.964000E+01  0.297560E+01
  0.968000E+01  0.298681E+01
  0.972000E+01  0.300192E+01
  0.976000E+01  0.301936E+01
  0.980000E+01  0.303785E+01
  0.984000E+01  0.305635E+01
  0.988000E+01  0.307397E+01
  0.992000E+01  0.309042E+01
  0.996000E+01  0.310593E+01
  0.100000E+02  0.312054E+01