File: data/xrd_measurements/Li3PS4/F_of_Q_orig.csv
,Q,F,dF
0,-0.537148,-0.192282,0
26,-0.456943,-0.203416,0
52,-0.37675,-0.208308,0
78,-0.29657,-0.20491,0
104,-0.216404,-0.189703,0
130,-0.136254,-0.155815,0
156,-0.056122,-0.083598,0
182,0.02399053,0.059339,0
208,0.104082,0.312226,0
234,0.184151,0.639184,0
260,0.264195,0.852211,0
286,0.344213,0.788545,0
312,0.424204,0.582097,0
338,0.504165,0.414081,0
364,0.584095,0.325264,0
390,0.663993,0.320968,0
416,0.743857,0.389971,0
442,0.8236841,0.562401,0
468,0.903474,0.906525,0
494,0.983225,1.362755,0
520,1.06293,1.865131,0
546,1.1426,1.784908,0
572,1.22223,1.282523,0
598,1.3018,0.900817,0
624,1.38133,0.698291,0
650,1.46081,0.603924,0
676,1.54024,0.570399,0
702,1.61962,0.581014,0
728,1.69895,0.617022,0
754,1.77822,0.653571,0
780,1.85743,0.712292,0
806,1.93658,0.77065,0
832,2.01567,0.831238,0
858,2.0947,0.93426,0
884,2.17367,0.933007,0
910,2.25257,0.950732,0
936,2.3314,0.995668,0
962,2.41017,1.080052,0
988,2.48886,1.194767,0
1014,2.56749,1.288097,0
1040,2.64604,1.376541,0
1066,2.72451,1.363839,0
1092,2.80291,1.35814,0
1118,2.88123,1.349314,0
1144,2.95947,1.335462,0
1170,3.03763,1.326753,0
1196,3.1157,1.309476,0
1222,3.19369,1.253335,0
1248,3.2716,1.171411,0
1274,3.34941,1.081803,0
1300,3.42714,0.998461,0
1326,3.50477,0.931949,0
1352,3.58232,0.888988,0
1378,3.65977,0.854939,0
1404,3.73712,0.850153,0
1430,3.81437,0.84671,0
1456,3.89153,0.842206,0
1482,3.96858,0.826781,0
1508,4.04554,0.810332,0
1534,4.12238,0.807282,0
1560,4.19913,0.795082,0
1586,4.27576,0.777805,0
1612,4.35229,0.795477,0
1638,4.42871,0.803626,0
1664,4.50501,0.832599,0
1690,4.58121,0.864172,0
1716,4.65728,0.910673,0
1742,4.73324,0.945374,0
1768,4.80909,0.993595,0
1794,4.88481,1.019968,0
1820,4.96041,1.063852,0
1846,5.03589,1.09079,0
1872,5.11124,1.106957,0
1898,5.18647,1.132079,0
1924,5.26158,1.136104,0
1950,5.33655,1.13509,0
1976,5.41139,1.121534,0
2002,5.4861,1.127984,0
2028,5.56068,1.084281,0
2054,5.63512,1.07415,0
2080,5.70942,1.038793,0
2106,5.78359,1.02563,0
2132,5.85762,1.019001,0
2158,5.9315,1.001705,0
2184,6.00525,1.005742,0
2210,6.07884,1.002967,0
2236,6.1523,1.000364,0
2262,6.2256,1.00173,0
2288,6.29876,1.01188,0
2314,6.37177,1.008999,0
2340,6.44462,1.025803,0
2366,6.51732,1.025172,0
2392,6.58987,1.042332,0
2418,6.66226,1.041378,0
2444,6.73449,1.035507,0
2470,6.80657,1.033317,0
2496,6.87848,1.033721,0
2522,6.95023,1.027524,0
2548,7.02182,1.020577,0
2574,7.09324,1.004546,0
2600,7.16449,0.979497,0
2626,7.23558,0.963178,0
2652,7.3065,0.957946,0
2678,7.37724,0.926481,0
2704,7.44782,0.918925,0
2730,7.51821,0.896733,0
2756,7.58844,0.892,0
2782,7.65849,0.868595,0
2808,7.72836,0.879054,0
2834,7.79804,0.871054,0
2860,7.86755,0.868751,0
2886,7.93688,0.889909,0
2912,8.00602,0.908065,0
2938,8.07498,0.915388,0
2964,8.14375,0.912256,0
2990,8.21233,0.947403,0
3016,8.28072,0.979639,0
3042,8.34892,1.012886,0
3068,8.41692,1.033257,0
3094,8.48474,1.049692,0
3120,8.55236,1.090881,0
3146,8.61978,1.107627,0
3172,8.687,1.10523,0
3198,8.75403,1.133797,0
3224,8.82085,1.128187,0
3250,8.88747,1.139594,0
3276,8.95389,1.159093,0
3302,9.0201,1.10502,0
3328,9.08611,1.135352,0
3354,9.1519,1.105964,0
3380,9.21749,1.077228,0
3406,9.28287,1.072507,0
3432,9.34804,1.05237,0
3458,9.41299,1.037236,0
3484,9.47773,0.998294,0
3510,9.54226,1.024263,0
3536,9.60656,0.981426,0
3562,9.67065,0.967036,0
3588,9.73452,0.945496,0
3614,9.79817,0.97769,0
3640,9.86159,0.936993,0
3666,9.9248,0.941249,0
3692,9.98777,0.922386,0
3718,10.0505,0.938589,0
3744,10.113,0.926436,0
3770,10.1753,0.930732,0
3796,10.2374,0.933492,0
3822,10.2992,0.943128,0
3848,10.3608,0.959571,0
3874,10.4222,0.936138,0
3900,10.4833,0.967588,0
3926,10.5442,0.960472,0
3952,10.6049,0.956834,0
3978,10.6653,0.953206,0
4004,10.7255,0.967382,0
4030,10.7854,0.972461,0
4056,10.8451,1.012589,0
4082,10.9046,0.99881,0
4108,10.9638,0.973545,0
4134,11.0227,0.970975,0
4160,11.0814,1.010004,0
4186,11.1399,1.017482,0
4212,11.1981,0.986145,0
4238,11.2561,0.990726,0
4264,11.3138,1.009892,0
4290,11.3712,1.001543,0
4316,11.4284,0.965338,0
4342,11.4854,0.981937,0
4368,11.5421,0.989883,0
4394,11.5985,1.001972,0
4420,11.6547,0.986333,0
4446,11.7106,1.013328,0
4472,11.7662,1.0066,0
4498,11.8216,1.037886,0
4524,11.8767,1.012072,0
4550,11.9316,1.042441,0
4576,11.9862,1.037993,0
4602,12.0405,1.06457,0
4628,12.0945,1.036065,0
4654,12.1483,1.059539,0
4680,12.2018,1.054786,0
4706,12.2551,1.11935,0
4732,12.308,1.074985,0
4758,12.3607,1.091851,0
4784,12.4131,1.055166,0
4810,12.4653,1.068746,0
4836,12.5171,1.060721,0
4862,12.5687,1.034638,0
4888,12.62,1.027333,0
4914,12.6711,1.06204,0
4940,12.7218,1.059548,0
4966,12.7723,1.046183,0
4992,12.8224,0.984079,0
5018,12.8723,1.00656,0
5044,12.9219,0.939626,0
5070,12.9713,0.985724,0
5096,13.0203,0.954748,0
5122,13.069,0.941874,0
5148,13.1175,1.00117,0
5174,13.1657,0.904865,0
5200,13.2135,0.917138,0
5226,13.2611,0.946354,0
5252,13.3084,0.916515,0
5278,13.3554,0.920528,0
5304,13.4021,0.914304,0
5330,13.4485,0.920739,0
5356,13.4946,0.929771,0
5382,13.5404,0.947485,0
5408,13.5859,0.930759,0
5434,13.6311,0.918774,0
5460,13.676,0.950832,0
5486,13.7206,0.948799,0
5512,13.7649,0.927045,0
5538,13.8089,0.966185,0
5564,13.8526,0.921764,0
5590,13.896,0.993921,0
5616,13.9391,0.954298,0
5642,13.9818,0.956162,0
5668,14.0243,0.974936,0
5694,14.0664,0.997673,0
5720,14.1083,0.998728,0
5746,14.1498,0.979732,0
5772,14.191,1.017798,0
5798,14.2319,0.997461,0
5824,14.2725,1.011429,0
5850,14.3128,1.055593,0
5876,14.3527,1.03041,0
5902,14.3924,0.98176,0
5928,14.4317,1.02591,0
5954,14.4707,1.012848,0
5980,14.5094,1.081633,0
6006,14.5478,1.058537,0
6032,14.5858,1.124153,0
6058,14.6236,1.042876,0
6084,14.661,1.0729,0
6110,14.6981,1.015115,0
6136,14.7348,0.984531,0
6162,14.7713,1.031619,0
6188,14.8074,0.971544,0
6214,14.8432,1.012039,0
6240,14.8786,1.030084,0
6266,14.9138,1.044047,0
6292,14.9486,1.072165,0
6318,14.9831,0.984578,0
6344,15.0172,1.028455,0
6370,15.051,1.054719,0
6396,15.0845,0.994953,0
6422,15.1177,1.167944,0
6448,15.1505,1.021488,0
6474,15.183,1.105571,0
6500,15.2152,1.017569,0
6526,15.247,1.025492,0
6552,15.2785,1.014195,0
6578,15.3096,1.021956,0
6604,15.3405,0.959422,0
6630,15.3709,0.940929,0
6656,15.4011,0.952379,0
6682,15.4309,0.943337,0
6708,15.4604,1.007218,0
6734,15.4895,0.930154,0
6760,15.5183,0.923913,0
6786,15.5468,0.975948,0
6812,15.5749,0.940189,0
6838,15.6026,0.95553,0
6864,15.6301,0.987012,0
6890,15.6572,0.95818,0
6916,15.6839,1.033614,0
6942,15.7103,0.974752,0
6968,15.7364,1.054709,0
6994,15.7621,0.966675,0
7020,15.7874,0.943866,0
7046,15.8125,1.037339,0
7072,15.8371,0.893392,0
7098,15.8615,0.987931,0
7124,15.8854,0.975461,0
7150,15.9091,1.020214,0
7176,15.9324,0.983474,0
7202,15.9553,1.033821,0
7228,15.9779,1.016971,0
7254,16.0001,1.025637,0
7280,16.022,1.052216,0
7306,16.0435,0.956306,0
7332,16.0647,0.958962,0
7358,16.0856,0.963394,0
7384,16.106,0.926236,0
7410,16.1262,0.925624,0
7436,16.146,0.981857,0
7462,16.1654,0.965641,0
7488,16.1845,0.924741,0
7514,16.2032,0.992961,0
7540,16.2215,1.015367,0
7566,16.2395,0.944727,0
7592,16.2572,0.981607,0
7618,16.2745,0.915014,0
7644,16.2914,0.906871,0
7670,16.308,0.909029,0
7696,16.3243,0.903643,0
7722,16.3401,0.922614,0
7724,16.3413,0.927425,0