File: data/xrd_measurements/Li3PS4/F_of_Q.csv
Q,F,dF
-0.537148,-0.192282,0
-0.456943,-0.203416,0
-0.37675,-0.208308,0
-0.29657,-0.20491,0
-0.216404,-0.189703,0
-0.136254,-0.155815,0
-0.056122,-0.083598,0
0.02399053,0.059339,0
0.104082,0.312226,0
0.184151,0.639184,0
0.264195,0.852211,0
0.344213,0.788545,0
0.424204,0.582097,0
0.504165,0.414081,0
0.584095,0.325264,0
0.663993,0.320968,0
0.743857,0.389971,0
0.8236841,0.562401,0
0.903474,0.906525,0
0.983225,1.362755,0
1.06293,1.865131,0
1.1426,1.784908,0
1.22223,1.282523,0
1.3018,0.900817,0
1.38133,0.698291,0
1.46081,0.603924,0
1.54024,0.570399,0
1.61962,0.581014,0
1.69895,0.617022,0
1.77822,0.653571,0
1.85743,0.712292,0
1.93658,0.77065,0
2.01567,0.831238,0
2.0947,0.93426,0
2.17367,0.933007,0
2.25257,0.950732,0
2.3314,0.995668,0
2.41017,1.080052,0
2.48886,1.194767,0
2.56749,1.288097,0
2.64604,1.376541,0
2.72451,1.363839,0
2.80291,1.35814,0
2.88123,1.349314,0
2.95947,1.335462,0
3.03763,1.326753,0
3.1157,1.309476,0
3.19369,1.253335,0
3.2716,1.171411,0
3.34941,1.081803,0
3.42714,0.998461,0
3.50477,0.931949,0
3.58232,0.888988,0
3.65977,0.854939,0
3.73712,0.850153,0
3.81437,0.84671,0
3.89153,0.842206,0
3.96858,0.826781,0
4.04554,0.810332,0
4.12238,0.807282,0
4.19913,0.795082,0
4.27576,0.777805,0
4.35229,0.795477,0
4.42871,0.803626,0
4.50501,0.832599,0
4.58121,0.864172,0
4.65728,0.910673,0
4.73324,0.945374,0
4.80909,0.993595,0
4.88481,1.019968,0
4.96041,1.063852,0
5.03589,1.09079,0
5.11124,1.106957,0
5.18647,1.132079,0
5.26158,1.136104,0
5.33655,1.13509,0
5.41139,1.121534,0
5.4861,1.127984,0
5.56068,1.084281,0
5.63512,1.07415,0
5.70942,1.038793,0
5.78359,1.02563,0
5.85762,1.019001,0
5.9315,1.001705,0
6.00525,1.005742,0
6.07884,1.002967,0
6.1523,1.000364,0
6.2256,1.00173,0
6.29876,1.01188,0
6.37177,1.008999,0
6.44462,1.025803,0
6.51732,1.025172,0
6.58987,1.042332,0
6.66226,1.041378,0
6.73449,1.035507,0
6.80657,1.033317,0
6.87848,1.033721,0
6.95023,1.027524,0
7.02182,1.020577,0
7.09324,1.004546,0
7.16449,0.979497,0
7.23558,0.963178,0
7.3065,0.957946,0
7.37724,0.926481,0
7.44782,0.918925,0
7.51821,0.896733,0
7.58844,0.892,0
7.65849,0.868595,0
7.72836,0.879054,0
7.79804,0.871054,0
7.86755,0.868751,0
7.93688,0.889909,0
8.00602,0.908065,0
8.07498,0.915388,0
8.14375,0.912256,0
8.21233,0.947403,0
8.28072,0.979639,0
8.34892,1.012886,0
8.41692,1.033257,0
8.48474,1.049692,0
8.55236,1.090881,0
8.61978,1.107627,0
8.687,1.10523,0
8.75403,1.133797,0
8.82085,1.128187,0
8.88747,1.139594,0
8.95389,1.159093,0
9.0201,1.10502,0
9.08611,1.135352,0
9.1519,1.105964,0
9.21749,1.077228,0
9.28287,1.072507,0
9.34804,1.05237,0
9.41299,1.037236,0
9.47773,0.998294,0
9.54226,1.024263,0
9.60656,0.981426,0
9.67065,0.967036,0
9.73452,0.945496,0
9.79817,0.97769,0
9.86159,0.936993,0
9.9248,0.941249,0
9.98777,0.922386,0
10.0505,0.938589,0
10.113,0.926436,0
10.1753,0.930732,0
10.2374,0.933492,0
10.2992,0.943128,0
10.3608,0.959571,0
10.4222,0.936138,0
10.4833,0.967588,0
10.5442,0.960472,0
10.6049,0.956834,0
10.6653,0.953206,0
10.7255,0.967382,0
10.7854,0.972461,0
10.8451,1.012589,0
10.9046,0.99881,0
10.9638,0.973545,0
11.0227,0.970975,0
11.0814,1.010004,0
11.1399,1.017482,0
11.1981,0.986145,0
11.2561,0.990726,0
11.3138,1.009892,0
11.3712,1.001543,0
11.4284,0.965338,0
11.4854,0.981937,0
11.5421,0.989883,0
11.5985,1.001972,0
11.6547,0.986333,0
11.7106,1.013328,0
11.7662,1.0066,0
11.8216,1.037886,0
11.8767,1.012072,0
11.9316,1.042441,0
11.9862,1.037993,0
12.0405,1.06457,0
12.0945,1.036065,0
12.1483,1.059539,0
12.2018,1.054786,0
12.2551,1.11935,0
12.308,1.074985,0
12.3607,1.091851,0
12.4131,1.055166,0
12.4653,1.068746,0
12.5171,1.060721,0
12.5687,1.034638,0
12.62,1.027333,0
12.6711,1.06204,0
12.7218,1.059548,0
12.7723,1.046183,0
12.8224,0.984079,0
12.8723,1.00656,0
12.9219,0.939626,0
12.9713,0.985724,0
13.0203,0.954748,0
13.069,0.941874,0
13.1175,1.00117,0
13.1657,0.904865,0
13.2135,0.917138,0
13.2611,0.946354,0
13.3084,0.916515,0
13.3554,0.920528,0
13.4021,0.914304,0
13.4485,0.920739,0
13.4946,0.929771,0
13.5404,0.947485,0
13.5859,0.930759,0
13.6311,0.918774,0
13.676,0.950832,0
13.7206,0.948799,0
13.7649,0.927045,0
13.8089,0.966185,0
13.8526,0.921764,0
13.896,0.993921,0
13.9391,0.954298,0
13.9818,0.956162,0
14.0243,0.974936,0
14.0664,0.997673,0
14.1083,0.998728,0
14.1498,0.979732,0
14.191,1.017798,0
14.2319,0.997461,0
14.2725,1.011429,0
14.3128,1.055593,0
14.3527,1.03041,0
14.3924,0.98176,0
14.4317,1.02591,0
14.4707,1.012848,0
14.5094,1.081633,0
14.5478,1.058537,0
14.5858,1.124153,0
14.6236,1.042876,0
14.661,1.0729,0
14.6981,1.015115,0
14.7348,0.984531,0
14.7713,1.031619,0
14.8074,0.971544,0
14.8432,1.012039,0
14.8786,1.030084,0
14.9138,1.044047,0
14.9486,1.072165,0
14.9831,0.984578,0
15.0172,1.028455,0
15.051,1.054719,0
15.0845,0.994953,0
15.1177,1.167944,0
15.1505,1.021488,0
15.183,1.105571,0
15.2152,1.017569,0
15.247,1.025492,0
15.2785,1.014195,0
15.3096,1.021956,0
15.3405,0.959422,0
15.3709,0.940929,0
15.4011,0.952379,0
15.4309,0.943337,0
15.4604,1.007218,0
15.4895,0.930154,0
15.5183,0.923913,0
15.5468,0.975948,0
15.5749,0.940189,0
15.6026,0.95553,0
15.6301,0.987012,0
15.6572,0.95818,0
15.6839,1.033614,0
15.7103,0.974752,0
15.7364,1.054709,0
15.7621,0.966675,0
15.7874,0.943866,0
15.8125,1.037339,0
15.8371,0.893392,0
15.8615,0.987931,0
15.8854,0.975461,0
15.9091,1.020214,0
15.9324,0.983474,0
15.9553,1.033821,0
15.9779,1.016971,0
16.0001,1.025637,0
16.022,1.052216,0
16.0435,0.956306,0
16.0647,0.958962,0
16.0856,0.963394,0
16.106,0.926236,0
16.1262,0.925624,0
16.146,0.981857,0
16.1654,0.965641,0
16.1845,0.924741,0
16.2032,0.992961,0
16.2215,1.015367,0
16.2395,0.944727,0
16.2572,0.981607,0
16.2745,0.915014,0
16.2914,0.906871,0
16.308,0.909029,0
16.3243,0.903643,0
16.3401,0.922614,0
16.3413,0.927425,0