File: data/xrd_measurements/Li3PS4/g_of_r.csv
r,G_r
0.01,-0.006186
0.18,-0.100526
0.35,-0.19832
0.52,-0.291261
0.69,-0.39078
0.86,-0.481434
1.03,-0.584204
1.2,-0.669926
1.37,-0.780463
1.54,-0.857869
1.71,-1.075253
1.88,0.07827
2.05,1.886624
2.22,0.258545
2.39,-0.81366
2.56,-0.539148
2.73,-1.085698
2.9,-1.20517
3.07,-1.017376
3.24,0.748066
3.41,1.444551
3.58,0.411202
3.75,0.24912
3.92,0.564514
4.09,0.464516
4.26,0.189759
4.43,-0.070334
4.6,-0.320738
4.77,-0.340082
4.94,-0.340128
5.11,-0.2063
5.28,-0.044572
5.45,-0.115961
5.62,-0.121906
5.79,-0.093339
5.96,0.04224
6.13,0.262649
6.3,0.490111
6.47,0.620254
6.64,0.634542
6.81,0.601461
6.98,0.413686
7.15,0.334445
7.32,0.095328
7.49,-0.038614
7.66,-0.135056
7.83,-0.268825
8,-0.333267
8.17,-0.405119
8.34,-0.455551
8.51,-0.412942
8.68,-0.294583
8.85,-0.143896
9.02,0.102085
9.19,0.095688
9.36,0.23672
9.53,0.232012
9.7,0.150825
9.87,0.17822
10.04,0.163176
10.21,0.113456
10.38,0.080973
10.55,0.089771
10.72,-0.012588
10.89,0.000735
11.06,-0.121275
11.23,-0.152825
11.4,-0.169026
11.57,-0.198269
11.74,-0.103605
11.91,-0.128238
12.08,0.033245
12.25,0.096372
12.42,0.100013
12.59,0.183602
12.76,0.081292
12.93,0.121163
13.1,0.001816
13.27,-0.073698
13.44,-0.014299
13.61,-0.149388
13.78,-0.143596
13.95,-0.129065
14.12,-0.156141
14.29,-0.11522
14.46,-0.124545
14.63,-0.068679
14.8,-0.042634
14.97,-0.03832
15.14,0.034877
15.31,0.005378
15.48,0.101234
15.65,0.097423
15.82,0.079832
15.99,0.090938
16.16,0.073576
16.33,0.054072
16.5,0.008375
16.67,0.018824
16.84,-0.075705
17.01,-0.045448
17.18,-0.049614
17.35,-0.068332
17.52,-0.062627
17.69,-0.048867
17.86,0.00382
18.03,-0.023029
18.2,0.041434
18.37,0.052206
18.54,0.040584
18.71,0.083382
18.88,0.024344
19.05,0.0786
19.22,0.035453
19.39,-0.004594
19.56,0.021323
19.73,-0.024233
19.9,0.012806
20.07,-0.051841
20.24,-0.01038
20.41,-0.006985
20.58,-0.006858
20.75,0.009522
20.92,-0.003604
21.09,0.063741
21.26,0.02381
21.43,0.061496
21.6,0.043698
21.77,0.039288
21.94,0.05093
22.11,0.000665
22.28,0.037001
22.45,0.004786
22.62,0.031107
22.79,-0.032766
22.96,-0.026386
23.13,-0.018996
23.3,-0.04376
23.47,0.012689
23.64,-0.063237
23.81,0.008015
23.98,-0.008294
24.15,-0.005213
24.32,0.022
24.49,0.008992
24.66,0.022018
24.83,-0.00066
25,0.021348
25.17,0.021029
25.34,-0.028976
25.51,-0.017726
25.68,-0.015702
25.85,-0.043824
26.02,-0.010446
26.19,-0.017487
26.36,-0.014455
26.53,-0.047875
26.7,0.01495
26.87,-0.031422
27.04,-0.008132
27.21,-0.001573
27.38,-0.0158
27.55,0.017451
27.72,-0.02096
27.89,0.006104
28.06,-0.015448
28.23,0.029563
28.4,-0.043312
28.57,-0.00602
28.74,0.001467
28.91,-0.046448
29.08,-0.00533
29.25,-0.011652
29.42,-0.016428
29.59,-0.011424
29.76,-0.013574
29.93,0.009414
30.1,-0.010072
30.27,-0.016665
30.44,0.038625
30.61,-0.017213
30.78,0.028774
30.95,0.013912
31.12,-0.002102
31.29,0.028174
31.46,-0.018764
31.63,0.024345
31.8,0.011242
31.97,-0.027123
32.14,0.021304
32.31,-0.008788
32.48,-0.002051
32.65,0.006663
32.82,-0.000222
32.99,0.009434
33.16,0.028064
33.33,0.022048
33.5,-0.006143
33.67,0.034472
33.84,0.00507
34.01,0.005848
34.18,-0.000465
34.35,0.026587
34.52,0.012021
34.69,0.001269
34.86,0.015439
35.03,0.004909
35.2,0.011599
35.37,-0.002763
35.54,0.018964
35.71,-0.00116
35.88,-0.01145
36.05,0.011149
36.22,-0.005392
36.39,0.005057
36.56,0.014841
36.73,-0.009128
36.9,0.034897
37.07,0.003065
37.24,-0.015121
37.41,0.003259
37.58,0.006535
37.75,0.001374
37.92,-0.015264
38.09,-0.00419
38.26,0.0048
38.43,-0.027684
38.6,0.002932
38.77,0.014542
38.94,-0.016077
39.11,-0.007727
39.28,-0.026379
39.45,0.01087
39.62,-0.023662
39.79,-0.004901
39.96,-0.006354
40.13,0.003344
40.3,-0.007207
40.47,-0.014513
40.64,-0.001991
40.81,-0.023228
40.98,0.013405
41.15,-0.019479
41.32,-0.013847
41.49,-0.002832
41.66,-0.000033
41.83,-0.006467
42,-0.00803
42.17,-0.026304
42.34,0.008698
42.51,-0.011198
42.68,-0.017979
42.85,0.007336
43.02,-0.016356
43.19,0.012205
43.36,-0.007404
43.53,-0.008563
43.7,0.022909
43.87,0.007755
44.04,-0.033582
44.21,0.018018
44.38,0.008134
44.55,-0.036728
44.72,0.021968
44.89,0.014801
45.06,-0.004908
45.23,0.005952
45.4,0.000342
45.57,0.024937
45.74,-0.018062
45.91,-0.008871
46.08,0.032992
46.25,-0.005701
46.42,-0.019597
46.59,0.02608
46.76,0.022448
46.93,-0.010127
47.1,0.011253
47.27,0.025858
47.44,0.010779
47.61,-0.004563
47.78,0.033342
47.95,-0.015984
48.12,-0.010418
48.29,0.011203
48.46,0.008507
48.63,0.004199
48.8,0.008767
48.97,0.024184
49.14,-0.006479
49.31,0.013092
49.48,0.000822
49.65,-0.011207
49.82,0.014285
49.99,0.009638
50,0.006897