File: data/xrd_measurements/Li3PS4/S_of_Q.csv
Q,SQ
0.462852,-0.192282
0.543057,-0.203416
0.62325,-0.208308
0.70343,-0.20491
0.783596,-0.189703
0.863746,-0.155815
0.943878,-0.083598
1.02399,0.059339
1.10408,0.312226
1.18415,0.639184
1.26419,0.852211
1.34421,0.788545
1.4242,0.582097
1.50417,0.414081
1.5841,0.325264
1.66399,0.320968
1.74386,0.389971
1.82368,0.562401
1.90347,0.906525
1.98322,1.362755
2.06293,1.865131
2.1426,1.784908
2.22223,1.282523
2.3018,0.900817
2.38133,0.698291
2.46081,0.603924
2.54024,0.570399
2.61962,0.581014
2.69895,0.617022
2.77822,0.653571
2.85743,0.712292
2.93658,0.77065
3.01567,0.831238
3.0947,0.93426
3.17367,0.933007
3.25257,0.950732
3.3314,0.995668
3.41017,1.080052
3.48886,1.194767
3.56749,1.288097
3.64604,1.376541
3.72451,1.363839
3.80291,1.35814
3.88123,1.349314
3.95947,1.335462
4.03763,1.326753
4.1157,1.309476
4.19369,1.253335
4.2716,1.171411
4.34941,1.081803
4.42714,0.998461
4.50477,0.931949
4.58232,0.888988
4.65977,0.854939
4.73712,0.850153
4.81437,0.84671
4.89153,0.842206
4.96858,0.826781
5.04554,0.810332
5.12238,0.807282
5.19913,0.795082
5.27576,0.777805
5.35229,0.795477
5.42871,0.803626
5.50501,0.832599
5.58121,0.864172
5.65728,0.910673
5.73324,0.945374
5.80909,0.993595
5.88481,1.019968
5.96041,1.063852
6.03589,1.09079
6.11124,1.106957
6.18647,1.132079
6.26158,1.136104
6.33655,1.13509
6.41139,1.121534
6.4861,1.127984
6.56068,1.084281
6.63512,1.07415
6.70942,1.038793
6.78359,1.02563
6.85762,1.019001
6.9315,1.001705
7.00525,1.005742
7.07884,1.002967
7.1523,1.000364
7.2256,1.00173
7.29876,1.01188
7.37177,1.008999
7.44462,1.025803
7.51732,1.025172
7.58987,1.042332
7.66226,1.041378
7.73449,1.035507
7.80657,1.033317
7.87848,1.033721
7.95023,1.027524
8.02182,1.020577
8.09324,1.004546
8.16449,0.979497
8.23558,0.963178
8.3065,0.957946
8.37724,0.926481
8.44782,0.918925
8.51821,0.896733
8.58844,0.892
8.65849,0.868595
8.72836,0.879054
8.79804,0.871054
8.86755,0.868751
8.93688,0.889909
9.00602,0.908065
9.07498,0.915388
9.14375,0.912256
9.21233,0.947403
9.28072,0.979639
9.34892,1.012886
9.41692,1.033257
9.48474,1.049692
9.55236,1.090881
9.61978,1.107627
9.687,1.10523
9.75403,1.133797
9.82085,1.128187
9.88747,1.139594
9.95389,1.159093
10.0201,1.10502
10.0861,1.135352
10.1519,1.105964
10.2175,1.077228
10.2829,1.072507
10.348,1.05237
10.413,1.037236
10.4777,0.998294
10.5423,1.024263
10.6066,0.981426
10.6707,0.967036
10.7345,0.945496
10.7982,0.97769
10.8616,0.936993
10.9248,0.941249
10.9878,0.922386
11.0505,0.938589
11.113,0.926436
11.1753,0.930732
11.2374,0.933492
11.2992,0.943128
11.3608,0.959571
11.4222,0.936138
11.4833,0.967588
11.5442,0.960472
11.6049,0.956834
11.6653,0.953206
11.7255,0.967382
11.7854,0.972461
11.8451,1.012589
11.9046,0.99881
11.9638,0.973545
12.0227,0.970975
12.0814,1.010004
12.1399,1.017482
12.1981,0.986145
12.2561,0.990726
12.3138,1.009892
12.3712,1.001543
12.4284,0.965338
12.4854,0.981937
12.5421,0.989883
12.5985,1.001972
12.6547,0.986333
12.7106,1.013328
12.7662,1.0066
12.8216,1.037886
12.8767,1.012072
12.9316,1.042441
12.9862,1.037993
13.0405,1.06457
13.0945,1.036065
13.1483,1.059539
13.2018,1.054786
13.2551,1.11935
13.308,1.074985
13.3607,1.091851
13.4131,1.055166
13.4653,1.068746
13.5171,1.060721
13.5687,1.034638
13.62,1.027333
13.6711,1.06204
13.7218,1.059548
13.7723,1.046183
13.8224,0.984079
13.8723,1.00656
13.9219,0.939626
13.9713,0.985724
14.0203,0.954748
14.069,0.941874
14.1175,1.00117
14.1657,0.904865
14.2135,0.917138
14.2611,0.946354
14.3084,0.916515
14.3554,0.920528
14.4021,0.914304
14.4485,0.920739
14.4946,0.929771
14.5404,0.947485
14.5859,0.930759
14.6311,0.918774
14.676,0.950832
14.7206,0.948799
14.7649,0.927045
14.8089,0.966185
14.8526,0.921764
14.896,0.993921
14.9391,0.954298
14.9818,0.956162
15.0243,0.974936
15.0664,0.997673
15.1083,0.998728
15.1498,0.979732
15.191,1.017798
15.2319,0.997461
15.2725,1.011429
15.3128,1.055593
15.3527,1.03041
15.3924,0.98176
15.4317,1.02591
15.4707,1.012848
15.5094,1.081633
15.5478,1.058537
15.5858,1.124153
15.6236,1.042876
15.661,1.0729
15.6981,1.015115
15.7348,0.984531
15.7713,1.031619
15.8074,0.971544
15.8432,1.012039
15.8786,1.030084
15.9138,1.044047
15.9486,1.072165
15.9831,0.984578
16.0172,1.028455
16.051,1.054719
16.0845,0.994953
16.1177,1.167944
16.1505,1.021488
16.183,1.105571
16.2152,1.017569
16.247,1.025492
16.2785,1.014195
16.3096,1.021956
16.3405,0.959422
16.3709,0.940929
16.4011,0.952379
16.4309,0.943337
16.4604,1.007218
16.4895,0.930154
16.5183,0.923913
16.5468,0.975948
16.5749,0.940189
16.6026,0.95553
16.6301,0.987012
16.6572,0.95818
16.6839,1.033614
16.7103,0.974752
16.7364,1.054709
16.7621,0.966675
16.7874,0.943866
16.8125,1.037339
16.8371,0.893392
16.8615,0.987931
16.8854,0.975461
16.9091,1.020214
16.9324,0.983474
16.9553,1.033821
16.9779,1.016971
17.0001,1.025637
17.022,1.052216
17.0435,0.956306
17.0647,0.958962
17.0856,0.963394
17.106,0.926236
17.1262,0.925624
17.146,0.981857
17.1654,0.965641
17.1845,0.924741
17.2032,0.992961
17.2215,1.015367
17.2395,0.944727
17.2572,0.981607
17.2745,0.915014
17.2914,0.906871
17.308,0.909029
17.3243,0.903643
17.3401,0.922614
17.3413,0.927425