File: data/xrd_measurements/NaTaCl6/T_of_r.csv
,r,T
0,-0.007781,0.00334564
1,0.115,-0.0488248
2,0.2643,-0.112927
3,0.4303,-0.177566
4,0.6128,-0.25354
5,0.7124,-0.290892
6,0.9115,-0.372684
7,1.044,-0.431945
8,1.111,-0.489728
9,1.177,-0.515635
10,1.21,-0.494076
11,1.243,-0.467209
12,1.277,-0.417782
13,1.343,-0.326707
14,1.409,-0.293195
15,1.442,-0.315699
16,1.476,-0.359061
17,1.509,-0.420174
18,1.542,-0.48361
19,1.575,-0.553603
20,1.608,-0.613052
21,1.642,-0.657147
22,1.691,-0.704213
23,1.874,-0.787519
24,2.007,-0.86296
25,2.123,-0.904795
26,2.305,-0.953672
27,2.471,-0.990262
28,2.571,-1.04981
29,2.627,-1.11533
30,2.737,-1.16203
31,2.77,-1.13856
32,2.803,-1.09904
33,2.836,-1.06597
34,2.869,-1.04726
35,3.002,-1.1852
36,3.035,-1.2557
37,3.069,-1.30299
38,3.152,-1.36893
39,3.268,-1.38747
40,3.334,-1.43354
41,3.483,-1.48818
42,3.616,-1.51565
43,3.782,-1.58522
44,3.865,-1.59911
45,3.948,-1.6548
46,4.048,-1.71863
47,4.213,-1.81149
48,4.296,-1.87042
49,4.612,-2.03297
50,4.761,-2.07287
51,4.894,-2.1043
52,5.01,-2.12706
53,5.126,-2.14856
54,5.275,-2.18248
55,5.524,-2.2556
56,5.723,-2.33686
57,5.856,-2.35949
58,5.923,-2.35442
59,6.105,-2.36069
60,6.454,-2.50614
61,6.57,-2.6116
62,6.719,-2.70721
63,6.902,-2.81827
64,6.985,-2.88998
65,7.051,-2.95543
66,7.35,-3.08075
67,7.615,-3.15064
68,7.914,-3.31715
69,8.179,-3.42823
70,8.395,-3.47335
71,8.611,-3.51611
72,8.727,-3.51626
73,8.992,-3.62304
74,9.125,-3.72599
75,9.407,-3.89206
76,9.656,-3.99508
77,9.789,-4.10306
78,9.888,-4.19808
79,10.0,-4.29975
80,10.12,-4.40611
81,10.35,-4.50625
82,10.49,-4.48205
83,10.68,-4.38984
84,10.85,-4.31292
85,11.43,-4.54348
86,11.6,-4.67385
87,11.68,-4.76926
88,11.78,-4.87386
89,11.88,-4.9795
90,12.03,-5.1075
91,12.31,-5.15974
92,12.44,-5.14693
93,12.71,-5.18984
94,13.19,-5.45724
95,13.47,-5.57309
96,13.72,-5.75074
97,14.02,-5.87648
98,14.19,-5.87098
99,14.37,-5.86766
100,14.62,-5.89066
101,14.88,-5.91487
102,15.1,-6.08406
103,15.25,-6.22699
104,15.48,-6.40471
105,15.71,-6.58484
106,15.88,-6.74207
107,16.18,-6.957
108,16.46,-6.98831
109,16.63,-6.97046
110,16.77,-6.93843
111,16.92,-6.9089
112,17.14,-6.90601
113,17.32,-6.88478
114,17.62,-7.09941
115,17.77,-7.25597
116,18.2,-7.43155
117,18.47,-7.64179
118,18.96,-7.94708
119,19.31,-8.09378
120,19.53,-8.08035
121,19.71,-8.04813